# wavelength (microns), transmission, emissivity
0.5000,0.0007,0.0000
0.5010,0.0008,0.0000
0.5020,0.0008,0.0000
0.5030,0.0009,0.0000
0.5040,0.0009,0.0000
0.5050,0.0010,0.0000
0.5060,0.0011,0.0000
0.5070,0.0012,0.0000
0.5080,0.0012,0.0000
0.5090,0.0013,0.0000
0.5100,0.0014,0.0000
0.5110,0.0015,0.0000
0.5120,0.0016,0.0000
0.5130,0.0017,0.0000
0.5140,0.0019,0.0000
0.5150,0.0020,0.0000
0.5160,0.0021,0.0000
0.5170,0.0022,0.0000
0.5180,0.0024,0.0000
0.5190,0.0026,0.0000
0.5200,0.0027,0.0000
0.5210,0.0029,0.0000
0.5220,0.0030,0.0000
0.5230,0.0032,0.0000
0.5240,0.0034,0.0000
0.5250,0.0036,0.0000
0.5260,0.0037,0.0000
0.5270,0.0039,0.0000
0.5280,0.0041,0.0000
0.5290,0.0043,0.0000
0.5300,0.0044,0.0000
0.5310,0.0047,0.0000
0.5320,0.0048,0.0000
0.5330,0.0050,0.0000
0.5340,0.0052,0.0000
0.5350,0.0054,0.0000
0.5360,0.0056,0.0000
0.5370,0.0058,0.0000
0.5380,0.0060,0.0000
0.5390,0.0063,0.0000
0.5400,0.0065,0.0000
0.5410,0.0067,0.0000
0.5420,0.0069,0.0000
0.5430,0.0071,0.0000
0.5440,0.0073,0.0000
0.5450,0.0076,0.0000
0.5460,0.0078,0.0000
0.5470,0.0080,0.0000
0.5480,0.0082,0.0000
0.5490,0.0084,0.0000
0.5500,0.0087,0.0000
0.5510,0.0089,0.0000
0.5520,0.0091,0.0000
0.5530,0.0093,0.0000
0.5540,0.0096,0.0000
0.5550,0.0098,0.0000
0.5560,0.0100,0.0000
0.5570,0.0102,0.0000
0.5580,0.0104,0.0000
0.5590,0.0106,0.0000
0.5600,0.0108,0.0000
0.5610,0.0110,0.0000
0.5620,0.0112,0.0000
0.5630,0.0114,0.0000
0.5640,0.0116,0.0000
0.5650,0.0118,0.0000
0.5660,0.0120,0.0000
0.5670,0.0121,0.0000
0.5680,0.0123,0.0000
0.5690,0.0124,0.0000
0.5700,0.0126,0.0000
0.5710,0.0127,0.0000
0.5720,0.0129,0.0000
0.5730,0.0130,0.0000
0.5740,0.0131,0.0000
0.5750,0.0132,0.0000
0.5760,0.0133,0.0000
0.5770,0.0134,0.0000
0.5780,0.0135,0.0000
0.5790,0.0135,0.0000
0.5800,0.0136,0.0000
0.5810,0.0137,0.0000
0.5820,0.0137,0.0000
0.5830,0.0137,0.0000
0.5840,0.0138,0.0000
0.5850,0.0138,0.0000
0.5860,0.0138,0.0000
0.5870,0.0138,0.0000
0.5880,0.0138,0.0000
0.5890,0.0137,0.0000
0.5900,0.0137,0.0000
0.5910,0.0137,0.0000
0.5920,0.0136,0.0000
0.5930,0.0136,0.0000
0.5940,0.0135,0.0000
0.5950,0.0134,0.0000
0.5960,0.0133,0.0000
0.5970,0.0132,0.0000
0.5980,0.0131,0.0000
0.5990,0.0130,0.0000
0.6000,0.0128,0.0000
0.6010,0.0127,0.0000
0.6020,0.0125,0.0000
0.6030,0.0124,0.0000
0.6040,0.0122,0.0000
0.6050,0.0120,0.0000
0.6060,0.0118,0.0000
0.6070,0.0116,0.0000
0.6080,0.0114,0.0000
0.6090,0.0112,0.0000
0.6100,0.0110,0.0000
0.6110,0.0108,0.0000
0.6120,0.0106,0.0000
0.6130,0.0103,0.0000
0.6140,0.0101,0.0000
0.6150,0.0099,0.0000
0.6160,0.0097,0.0000
0.6170,0.0094,0.0000
0.6180,0.0092,0.0000
0.6190,0.0090,0.0000
0.6200,0.0088,0.0000
0.6210,0.0086,0.0000
0.6220,0.0084,0.0000
0.6230,0.0082,0.0000
0.6240,0.0080,0.0000
0.6250,0.0078,0.0000
0.6260,0.0076,0.0000
0.6270,0.0074,0.0000
0.6280,0.0072,0.0000
0.6290,0.0071,0.0000
0.6300,0.0069,0.0000
0.6310,0.0068,0.0000
0.6320,0.0066,0.0000
0.6330,0.0065,0.0000
0.6340,0.0064,0.0000
0.6350,0.0063,0.0000
0.6360,0.0062,0.0000
0.6370,0.0061,0.0000
0.6380,0.0060,0.0000
0.6390,0.0060,0.0000
0.6400,0.0060,0.0000
0.6410,0.0060,0.0000
0.6420,0.0060,0.0000
0.6430,0.0060,0.0000
0.6440,0.0061,0.0000
0.6450,0.0061,0.0000
0.6460,0.0062,0.0000
0.6470,0.0063,0.0000
0.6480,0.0065,0.0000
0.6490,0.0066,0.0000
0.6500,0.0068,0.0000
0.6510,0.0069,0.0000
0.6520,0.0071,0.0000
0.6530,0.0072,0.0000
0.6540,0.0074,0.0000
0.6550,0.0076,0.0000
0.6560,0.0078,0.0000
0.6570,0.0081,0.0000
0.6580,0.0083,0.0000
0.6590,0.0086,0.0000
0.6600,0.0089,0.0000
0.6610,0.0092,0.0000
0.6620,0.0095,0.0000
0.6630,0.0099,0.0000
0.6640,0.0103,0.0000
0.6650,0.0107,0.0000
0.6660,0.0111,0.0000
0.6670,0.0115,0.0000
0.6680,0.0120,0.0000
0.6690,0.0125,0.0000
0.6700,0.0130,0.0000
0.6710,0.0135,0.0000
0.6720,0.0140,0.0000
0.6730,0.0146,0.0000
0.6740,0.0152,0.0000
0.6750,0.0158,0.0000
0.6760,0.0164,0.0000
0.6770,0.0170,0.0000
0.6780,0.0177,0.0000
0.6790,0.0184,0.0000
0.6800,0.0191,0.0000
0.6810,0.0199,0.0000
0.6820,0.0206,0.0000
0.6830,0.0214,0.0000
0.6840,0.0222,0.0000
0.6850,0.0231,0.0000
0.6860,0.0239,0.0000
0.6870,0.0248,0.0000
0.6880,0.0257,0.0000
0.6890,0.0267,0.0000
0.6900,0.0277,0.0000
0.6910,0.0286,0.0000
0.6920,0.0296,0.0000
0.6930,0.0307,0.0000
0.6940,0.0317,0.0000
0.6950,0.0328,0.0000
0.6960,0.0339,0.0000
0.6970,0.0350,0.0000
0.6980,0.0362,0.0000
0.6990,0.0374,0.0000
0.7000,0.0386,0.0000
0.7010,0.0397,0.0000
0.7020,0.0408,0.0000
0.7030,0.0420,0.0000
0.7040,0.0432,0.0000
0.7050,0.0444,0.0000
0.7060,0.0456,0.0000
0.7070,0.0468,0.0000
0.7080,0.0481,0.0000
0.7090,0.0494,0.0000
0.7100,0.0507,0.0000
0.7110,0.0520,0.0000
0.7120,0.0534,0.0000
0.7130,0.0548,0.0000
0.7140,0.0563,0.0000
0.7150,0.0577,0.0000
0.7160,0.0591,0.0000
0.7170,0.0606,0.0000
0.7180,0.0622,0.0000
0.7190,0.0637,0.0000
0.7200,0.0652,0.0000
0.7210,0.0668,0.0000
0.7220,0.0684,0.0000
0.7230,0.0700,0.0000
0.7240,0.0716,0.0000
0.7250,0.0732,0.0000
0.7260,0.0749,0.0000
0.7270,0.0766,0.0000
0.7280,0.0783,0.0000
0.7290,0.0800,0.0000
0.7300,0.0817,0.0000
0.7310,0.0834,0.0000
0.7320,0.0852,0.0000
0.7330,0.0870,0.0000
0.7340,0.0888,0.0000
0.7350,0.0906,0.0000
0.7360,0.0924,0.0000
0.7370,0.0942,0.0000
0.7380,0.0961,0.0000
0.7390,0.0979,0.0000
0.7400,0.0998,0.0000
0.7410,0.1017,0.0000
0.7420,0.1036,0.0000
0.7430,0.1055,0.0000
0.7440,0.1074,0.0000
0.7450,0.1094,0.0000
0.7460,0.1113,0.0000
0.7470,0.1133,0.0000
0.7480,0.1153,0.0000
0.7490,0.1173,0.0000
0.7500,0.1193,0.0000
0.7510,0.1212,0.0000
0.7520,0.1231,0.0000
0.7530,0.1250,0.0000
0.7540,0.1269,0.0000
0.7550,0.1289,0.0000
0.7560,0.1309,0.0000
0.7570,0.1329,0.0000
0.7580,0.1349,0.0000
0.7590,0.1368,0.0000
0.7600,0.1388,0.0000
0.7610,0.1409,0.0000
0.7620,0.1429,0.0000
0.7630,0.1450,0.0000
0.7640,0.1471,0.0000
0.7650,0.1493,0.0000
0.7660,0.1514,0.0000
0.7670,0.1535,0.0000
0.7680,0.1557,0.0000
0.7690,0.1578,0.0000
0.7700,0.1600,0.0000
0.7710,0.1622,0.0000
0.7720,0.1645,0.0000
0.7730,0.1667,0.0000
0.7740,0.1689,0.0000
0.7750,0.1711,0.0000
0.7760,0.1733,0.0000
0.7770,0.1756,0.0000
0.7780,0.1778,0.0000
0.7790,0.1800,0.0000
0.7800,0.1823,0.0000
0.7810,0.1846,0.0000
0.7820,0.1868,0.0000
0.7830,0.1891,0.0000
0.7840,0.1913,0.0000
0.7850,0.1937,0.0000
0.7860,0.1961,0.0000
0.7870,0.1984,0.0000
0.7880,0.2007,0.0000
0.7890,0.2029,0.0000
0.7900,0.2052,0.0000
0.7910,0.2077,0.0000
0.7920,0.2101,0.0000
0.7930,0.2123,0.0000
0.7940,0.2147,0.0000
0.7950,0.2171,0.0000
0.7960,0.2195,0.0000
0.7970,0.2218,0.0000
0.7980,0.2241,0.0000
0.7990,0.2265,0.0000
0.8000,0.2289,0.0000
0.8010,0.2312,0.0000
0.8020,0.2334,0.0000
0.8030,0.2358,0.0000
0.8040,0.2382,0.0000
0.8050,0.2404,0.0000
0.8060,0.2427,0.0000
0.8070,0.2451,0.0000
0.8080,0.2475,0.0000
0.8090,0.2499,0.0000
0.8100,0.2523,0.0000
0.8110,0.2546,0.0000
0.8120,0.2569,0.0000
0.8130,0.2593,0.0000
0.8140,0.2617,0.0000
0.8150,0.2641,0.0000
0.8160,0.2666,0.0000
0.8170,0.2690,0.0000
0.8180,0.2715,0.0000
0.8190,0.2739,0.0000
0.8200,0.2763,0.0000
0.8210,0.2786,0.0000
0.8220,0.2809,0.0000
0.8230,0.2833,0.0000
0.8240,0.2858,0.0000
0.8250,0.2882,0.0000
0.8260,0.2907,0.0000
0.8270,0.2932,0.0000
0.8280,0.2956,0.0000
0.8290,0.2980,0.0000
0.8300,0.3005,0.0000
0.8310,0.3029,0.0000
0.8320,0.3054,0.0000
0.8330,0.3078,0.0000
0.8340,0.3102,0.0000
0.8350,0.3127,0.0000
0.8360,0.3151,0.0000
0.8370,0.3173,0.0000
0.8380,0.3196,0.0000
0.8390,0.3221,0.0000
0.8400,0.3247,0.0000
0.8410,0.3271,0.0000
0.8420,0.3295,0.0000
0.8430,0.3320,0.0000
0.8440,0.3344,0.0000
0.8450,0.3368,0.0000
0.8460,0.3392,0.0000
0.8470,0.3417,0.0000
0.8480,0.3441,0.0000
0.8490,0.3465,0.0000
0.8500,0.3490,0.0000
0.8510,0.3517,0.0000
0.8520,0.3544,0.0000
0.8530,0.3570,0.0000
0.8540,0.3595,0.0000
0.8550,0.3620,0.0000
0.8560,0.3646,0.0000
0.8570,0.3672,0.0000
0.8580,0.3697,0.0000
0.8590,0.3722,0.0000
0.8600,0.3748,0.0000
0.8610,0.3775,0.0000
0.8620,0.3802,0.0000
0.8630,0.3827,0.0000
0.8640,0.3851,0.0000
0.8650,0.3875,0.0000
0.8660,0.3899,0.0000
0.8670,0.3922,0.0000
0.8680,0.3946,0.0000
0.8690,0.3972,0.0000
0.8700,0.3997,0.0000
0.8710,0.4021,0.0000
0.8720,0.4044,0.0000
0.8730,0.4067,0.0000
0.8740,0.4090,0.0000
0.8750,0.4112,0.0000
0.8760,0.4136,0.0000
0.8770,0.4161,0.0000
0.8780,0.4186,0.0000
0.8790,0.4209,0.0000
0.8800,0.4231,0.0000
0.8810,0.4254,0.0000
0.8820,0.4277,0.0000
0.8830,0.4302,0.0000
0.8840,0.4328,0.0000
0.8850,0.4351,0.0000
0.8860,0.4373,0.0000
0.8870,0.4395,0.0000
0.8880,0.4419,0.0000
0.8890,0.4451,0.0000
0.8900,0.4483,0.0000
0.8910,0.4507,0.0000
0.8920,0.4528,0.0000
0.8930,0.4553,0.0000
0.8940,0.4578,0.0000
0.8950,0.4601,0.0000
0.8960,0.4622,0.0000
0.8970,0.4644,0.0000
0.8980,0.4667,0.0000
0.8990,0.4691,0.0000
0.9000,0.4716,0.0000
0.9010,0.4738,0.0000
0.9020,0.4760,0.0000
0.9030,0.4785,0.0000
0.9040,0.4810,0.0000
0.9050,0.4833,0.0000
0.9060,0.4855,0.0000
0.9070,0.4879,0.0000
0.9080,0.4904,0.0000
0.9090,0.4927,0.0000
0.9100,0.4948,0.0000
0.9110,0.4970,0.0000
0.9120,0.4991,0.0000
0.9130,0.5013,0.0000
0.9140,0.5034,0.0000
0.9150,0.5059,0.0000
0.9160,0.5083,0.0000
0.9170,0.5104,0.0000
0.9180,0.5125,0.0000
0.9190,0.5149,0.0000
0.9200,0.5173,0.0000
0.9210,0.5195,0.0000
0.9220,0.5215,0.0000
0.9230,0.5233,0.0000
0.9240,0.5251,0.0000
0.9250,0.5274,0.0000
0.9260,0.5298,0.0000
0.9270,0.5319,0.0000
0.9280,0.5339,0.0000
0.9290,0.5359,0.0000
0.9300,0.5379,0.0000
0.9310,0.5399,0.0000
0.9320,0.5420,0.0000
0.9330,0.5442,0.0000
0.9340,0.5465,0.0000
0.9350,0.5485,0.0000
0.9360,0.5504,0.0000
0.9370,0.5524,0.0000
0.9380,0.5543,0.0000
0.9390,0.5562,0.0000
0.9400,0.5582,0.0000
0.9410,0.5604,0.0000
0.9420,0.5626,0.0000
0.9430,0.5645,0.0000
0.9440,0.5664,0.0000
0.9450,0.5686,0.0000
0.9460,0.5707,0.0000
0.9470,0.5726,0.0000
0.9480,0.5744,0.0000
0.9490,0.5763,0.0000
0.9500,0.5781,0.0000
0.9510,0.5800,0.0000
0.9520,0.5819,0.0000
0.9530,0.5837,0.0000
0.9540,0.5856,0.0000
0.9550,0.5878,0.0000
0.9560,0.5899,0.0000
0.9570,0.5918,0.0000
0.9580,0.5936,0.0000
0.9590,0.5954,0.0000
0.9600,0.5972,0.0000
0.9610,0.5990,0.0000
0.9620,0.6008,0.0000
0.9630,0.6029,0.0000
0.9640,0.6050,0.0000
0.9650,0.6069,0.0000
0.9660,0.6086,0.0000
0.9670,0.6103,0.0000
0.9680,0.6121,0.0000
0.9690,0.6138,0.0000
0.9700,0.6155,0.0000
0.9710,0.6172,0.0000
0.9720,0.6189,0.0000
0.9730,0.6206,0.0000
0.9740,0.6223,0.0000
0.9750,0.6240,0.0000
0.9760,0.6257,0.0000
0.9770,0.6277,0.0000
0.9780,0.6297,0.0000
0.9790,0.6314,0.0000
0.9800,0.6330,0.0000
0.9810,0.6346,0.0000
0.9820,0.6362,0.0000
0.9830,0.6378,0.0000
0.9840,0.6394,0.0000
0.9850,0.6410,0.0000
0.9860,0.6426,0.0000
0.9870,0.6441,0.0000
0.9880,0.6457,0.0000
0.9890,0.6477,0.0000
0.9900,0.6495,0.0000
0.9910,0.6511,0.0000
0.9920,0.6526,0.0000
0.9930,0.6541,0.0000
0.9940,0.6557,0.0000
0.9950,0.6572,0.0000
0.9960,0.6586,0.0000
0.9970,0.6601,0.0000
0.9980,0.6616,0.0000
0.9990,0.6630,0.0000
1.0000,0.6645,0.0000
1.0010,0.6664,0.0000
1.0020,0.6683,0.0000
1.0030,0.6698,0.0000
1.0040,0.6713,0.0000
1.0050,0.6728,0.0000
1.0060,0.6743,0.0000
1.0070,0.6757,0.0000
1.0080,0.6772,0.0000
1.0090,0.6787,0.0000
1.0100,0.6801,0.0000
1.0110,0.6815,0.0000
1.0120,0.6830,0.0000
1.0130,0.6847,0.0000
1.0140,0.6865,0.0000
1.0150,0.6880,0.0000
1.0160,0.6893,0.0000
1.0170,0.6907,0.0000
1.0180,0.6921,0.0000
1.0190,0.6934,0.0000
1.0200,0.6948,0.0000
1.0210,0.6961,0.0000
1.0220,0.6975,0.0000
1.0230,0.6988,0.0000
1.0240,0.7001,0.0000
1.0250,0.7014,0.0000
1.0260,0.7027,0.0000
1.0270,0.7040,0.0000
1.0280,0.7053,0.0000
1.0290,0.7065,0.0000
1.0300,0.7078,0.0000
1.0310,0.7095,0.0000
1.0320,0.7111,0.0000
1.0330,0.7124,0.0000
1.0340,0.7136,0.0000
1.0350,0.7148,0.0000
1.0360,0.7160,0.0000
1.0370,0.7172,0.0000
1.0380,0.7184,0.0000
1.0390,0.7196,0.0000
1.0400,0.7208,0.0000
1.0410,0.7220,0.0000
1.0420,0.7231,0.0000
1.0430,0.7243,0.0000
1.0440,0.7254,0.0000
1.0450,0.7265,0.0000
1.0460,0.7277,0.0000
1.0470,0.7292,0.0000
1.0480,0.7307,0.0000
1.0490,0.7319,0.0000
1.0500,0.7329,0.0000
1.0510,0.7341,0.0000
1.0520,0.7353,0.0000
1.0530,0.7364,0.0000
1.0540,0.7376,0.0000
1.0550,0.7387,0.0000
1.0560,0.7398,0.0000
1.0570,0.7409,0.0000
1.0580,0.7420,0.0000
1.0590,0.7431,0.0000
1.0600,0.7442,0.0000
1.0610,0.7457,0.0000
1.0620,0.7472,0.0000
1.0630,0.7483,0.0000
1.0640,0.7493,0.0000
1.0650,0.7503,0.0000
1.0660,0.7513,0.0000
1.0670,0.7523,0.0000
1.0680,0.7534,0.0000
1.0690,0.7548,0.0000
1.0700,0.7562,0.0000
1.0710,0.7568,0.0000
1.0720,0.7574,0.0000
1.0730,0.7583,0.0000
1.0740,0.7593,0.0000
1.0750,0.7603,0.0000
1.0760,0.7612,0.0000
1.0770,0.7621,0.0000
1.0780,0.7631,0.0000
1.0790,0.7644,0.0000
1.0800,0.7657,0.0000
1.0810,0.7667,0.0000
1.0820,0.7675,0.0000
1.0830,0.7684,0.0000
1.0840,0.7693,0.0000
1.0850,0.7706,0.0000
1.0860,0.7719,0.0000
1.0870,0.7728,0.0000
1.0880,0.7736,0.0000
1.0890,0.7744,0.0000
1.0900,0.7753,0.0000
1.0910,0.7766,0.0000
1.0920,0.7778,0.0000
1.0930,0.7787,0.0000
1.0940,0.7794,0.0000
1.0950,0.7803,0.0000
1.0960,0.7810,0.0000
1.0970,0.7814,0.0000
1.0980,0.7818,0.0000
1.0990,0.7829,0.0000
1.1000,0.7842,0.0000
1.1010,0.7850,0.0000
1.1020,0.7858,0.0000
1.1030,0.7870,0.0000
1.1040,0.7883,0.0000
1.1050,0.7891,0.0000
1.1060,0.7898,0.0000
1.1070,0.7906,0.0000
1.1080,0.7914,0.0000
1.1090,0.7922,0.0000
1.1100,0.7929,0.0000
1.1110,0.7936,0.0000
1.1120,0.7944,0.0000
1.1130,0.7951,0.0000
1.1140,0.7958,0.0000
1.1150,0.7970,0.0000
1.1160,0.7981,0.0000
1.1170,0.7989,0.0000
1.1180,0.7995,0.0000
1.1190,0.8002,0.0000
1.1200,0.8008,0.0000
1.1210,0.8015,0.0000
1.1220,0.8022,0.0000
1.1230,0.8033,0.0000
1.1240,0.8043,0.0000
1.1250,0.8050,0.0000
1.1260,0.8056,0.0000
1.1270,0.8062,0.0000
1.1280,0.8068,0.0000
1.1290,0.8074,0.0000
1.1300,0.8081,0.0000
1.1310,0.8086,0.0000
1.1320,0.8092,0.0000
1.1330,0.8103,0.0000
1.1340,0.8113,0.0000
1.1350,0.8119,0.0000
1.1360,0.8124,0.0000
1.1370,0.8130,0.0000
1.1380,0.8135,0.0000
1.1390,0.8140,0.0000
1.1400,0.8146,0.0000
1.1410,0.8156,0.0000
1.1420,0.8165,0.0000
1.1430,0.8170,0.0000
1.1440,0.8176,0.0000
1.1450,0.8185,0.0000
1.1460,0.8194,0.0000
1.1470,0.8199,0.0000
1.1480,0.8204,0.0000
1.1490,0.8214,0.0000
1.1500,0.8222,0.0000
1.1510,0.8224,0.0000
1.1520,0.8224,0.0000
1.1530,0.8228,0.0000
1.1540,0.8235,0.0000
1.1550,0.8244,0.0000
1.1560,0.8253,0.0000
1.1570,0.8259,0.0000
1.1580,0.8263,0.0000
1.1590,0.8268,0.0000
1.1600,0.8272,0.0000
1.1610,0.8276,0.0000
1.1620,0.8282,0.0000
1.1630,0.8290,0.0000
1.1640,0.8299,0.0000
1.1650,0.8304,0.0000
1.1660,0.8308,0.0000
1.1670,0.8317,0.0000
1.1680,0.8325,0.0000
1.1690,0.8329,0.0000
1.1700,0.8333,0.0000
1.1710,0.8342,0.0000
1.1720,0.8350,0.0000
1.1730,0.8355,0.0000
1.1740,0.8358,0.0000
1.1750,0.8362,0.0000
1.1760,0.8365,0.0000
1.1770,0.8369,0.0000
1.1780,0.8373,0.0000
1.1790,0.8376,0.0000
1.1800,0.8380,0.0000
1.1810,0.8383,0.0000
1.1820,0.8387,0.0000
1.1830,0.8389,0.0000
1.1840,0.8393,0.0000
1.1850,0.8400,0.0000
1.1860,0.8408,0.0000
1.1870,0.8417,0.0000
1.1880,0.8423,0.0000
1.1890,0.8427,0.0000
1.1900,0.8429,0.0000
1.1910,0.8433,0.0000
1.1920,0.8435,0.0000
1.1930,0.8433,0.0000
1.1940,0.8432,0.0000
1.1950,0.8438,0.0000
1.1960,0.8446,0.0000
1.1970,0.8448,0.0000
1.1980,0.8451,0.0000
1.1990,0.8458,0.0000
1.2000,0.8464,0.0000
1.2010,0.8467,0.0000
1.2020,0.8470,0.0000
1.2030,0.8477,0.0000
1.2040,0.8484,0.0000
1.2050,0.8487,0.0000
1.2060,0.8489,0.0000
1.2070,0.8496,0.0000
1.2080,0.8503,0.0000
1.2090,0.8506,0.0000
1.2100,0.8508,0.0000
1.2110,0.8510,0.0000
1.2120,0.8512,0.0000
1.2130,0.8514,0.0000
1.2140,0.8516,0.0000
1.2150,0.8518,0.0000
1.2160,0.8520,0.0000
1.2170,0.8526,0.0000
1.2180,0.8533,0.0000
1.2190,0.8540,0.0000
1.2200,0.8545,0.0000
1.2210,0.8543,0.0000
1.2220,0.8540,0.0000
1.2230,0.8545,0.0000
1.2240,0.8552,0.0000
1.2250,0.8554,0.0000
1.2260,0.8554,0.0000
1.2270,0.8556,0.0000
1.2280,0.8557,0.0000
1.2290,0.8558,0.0000
1.2300,0.8560,0.0000
1.2310,0.8560,0.0000
1.2320,0.8562,0.0000
1.2330,0.8567,0.0000
1.2340,0.8573,0.0000
1.2350,0.8574,0.0000
1.2360,0.8575,0.0000
1.2370,0.8575,0.0000
1.2380,0.8576,0.0000
1.2390,0.8577,0.0000
1.2400,0.8577,0.0000
1.2410,0.8577,0.0000
1.2420,0.8579,0.0000
1.2430,0.8584,0.0000
1.2440,0.8589,0.0000
1.2450,0.8590,0.0000
1.2460,0.8589,0.0000
1.2470,0.8588,0.0000
1.2480,0.8590,0.0000
1.2490,0.8599,0.0000
1.2500,0.8608,0.0000
1.2510,0.8610,0.0000
1.2520,0.8609,0.0000
1.2530,0.8609,0.0000
1.2540,0.8609,0.0000
1.2550,0.8610,0.0000
1.2560,0.8610,0.0000
1.2570,0.8611,0.0000
1.2580,0.8610,0.0000
1.2590,0.8605,0.0000
1.2600,0.8602,0.0000
1.2610,0.8605,0.0000
1.2620,0.8610,0.0000
1.2630,0.8610,0.0000
1.2640,0.8610,0.0000
1.2650,0.8615,0.0000
1.2660,0.8619,0.0000
1.2670,0.8619,0.0000
1.2680,0.8618,0.0000
1.2690,0.8618,0.0000
1.2700,0.8617,0.0000
1.2710,0.8616,0.0000
1.2720,0.8616,0.0000
1.2730,0.8620,0.0000
1.2740,0.8624,0.0000
1.2750,0.8624,0.0000
1.2760,0.8623,0.0000
1.2770,0.8627,0.0000
1.2780,0.8631,0.0000
1.2790,0.8631,0.0000
1.2800,0.8629,0.0000
1.2810,0.8623,0.0000
1.2820,0.8619,0.0000
1.2830,0.8622,0.0000
1.2840,0.8626,0.0000
1.2850,0.8626,0.0000
1.2860,0.8624,0.0000
1.2870,0.8622,0.0000
1.2880,0.8622,0.0000
1.2890,0.8626,0.0000
1.2900,0.8629,0.0000
1.2910,0.8629,0.0000
1.2920,0.8627,0.0000
1.2930,0.8626,0.0000
1.2940,0.8625,0.0000
1.2950,0.8623,0.0000
1.2960,0.8622,0.0000
1.2970,0.8620,0.0000
1.2980,0.8620,0.0000
1.2990,0.8623,0.0000
1.3000,0.8626,0.0000
1.3010,0.8625,0.0000
1.3020,0.8624,0.0000
1.3030,0.8627,0.0000
1.3040,0.8630,0.0000
1.3050,0.8630,0.0000
1.3060,0.8628,0.0000
1.3070,0.8626,0.0000
1.3080,0.8625,0.0000
1.3090,0.8624,0.0000
1.3100,0.8622,0.0000
1.3110,0.8621,0.0000
1.3120,0.8619,0.0000
1.3130,0.8617,0.0000
1.3140,0.8616,0.0000
1.3150,0.8619,0.0000
1.3160,0.8622,0.0000
1.3170,0.8620,0.0000
1.3180,0.8618,0.0000
1.3190,0.8616,0.0000
1.3200,0.8614,0.0000
1.3210,0.8613,0.0000
1.3220,0.8611,0.0000
1.3230,0.8609,0.0000
1.3240,0.8607,0.0000
1.3250,0.8605,0.0000
1.3260,0.8603,0.0000
1.3270,0.8601,0.0000
1.3280,0.8598,0.0000
1.3290,0.8596,0.0000
1.3300,0.8594,0.0000
1.3310,0.8591,0.0000
1.3320,0.8590,0.0000
1.3330,0.8593,0.0000
1.3340,0.8594,0.0000
1.3350,0.8587,0.0000
1.3360,0.8580,0.0000
1.3370,0.8582,0.0000
1.3380,0.8584,0.0000
1.3390,0.8582,0.0000
1.3400,0.8579,0.0000
1.3410,0.8581,0.0000
1.3420,0.8583,0.0000
1.3430,0.8581,0.0000
1.3440,0.8578,0.0000
1.3450,0.8575,0.0000
1.3460,0.8572,0.0000
1.3470,0.8570,0.0000
1.3480,0.8567,0.0000
1.3490,0.8564,0.0000
1.3500,0.8561,0.0000
1.3510,0.8558,0.0000
1.3520,0.8556,0.0000
1.3530,0.8558,0.0000
1.3540,0.8560,0.0000
1.3550,0.8558,0.0000
1.3560,0.8554,0.0000
1.3570,0.8551,0.0000
1.3580,0.8548,0.0000
1.3590,0.8551,0.0000
1.3600,0.8551,0.0000
1.3610,0.8545,0.0000
1.3620,0.8537,0.0000
1.3630,0.8533,0.0000
1.3640,0.8531,0.0000
1.3650,0.8528,0.0000
1.3660,0.8525,0.0000
1.3670,0.8522,0.0000
1.3680,0.8518,0.0000
1.3690,0.8515,0.0000
1.3700,0.8512,0.0000
1.3710,0.8508,0.0000
1.3720,0.8506,0.0000
1.3730,0.8507,0.0000
1.3740,0.8508,0.0000
1.3750,0.8505,0.0000
1.3760,0.8501,0.0000
1.3770,0.8498,0.0000
1.3780,0.8494,0.0000
1.3790,0.8492,0.0000
1.3800,0.8487,0.0000
1.3810,0.8479,0.0000
1.3820,0.8472,0.0000
1.3830,0.8467,0.0000
1.3840,0.8464,0.0000
1.3850,0.8465,0.0000
1.3860,0.8466,0.0000
1.3870,0.8463,0.0000
1.3880,0.8459,0.0000
1.3890,0.8455,0.0000
1.3900,0.8451,0.0000
1.3910,0.8447,0.0000
1.3920,0.8444,0.0000
1.3930,0.8439,0.0000
1.3940,0.8436,0.0000
1.3950,0.8436,0.0000
1.3960,0.8437,0.0000
1.3970,0.8434,0.0000
1.3980,0.8429,0.0000
1.3990,0.8425,0.0000
1.4000,0.8421,0.0000
1.4010,0.8417,0.0000
1.4020,0.8413,0.0000
1.4030,0.8410,0.0000
1.4040,0.8406,0.0000
1.4050,0.8402,0.0000
1.4060,0.8398,0.0000
1.4070,0.8395,0.0000
1.4080,0.8390,0.0000
1.4090,0.8382,0.0000
1.4100,0.8373,0.0000
1.4110,0.8368,0.0000
1.4120,0.8365,0.0000
1.4130,0.8365,0.0000
1.4140,0.8365,0.0000
1.4150,0.8362,0.0000
1.4160,0.8357,0.0000
1.4170,0.8353,0.0000
1.4180,0.8349,0.0000
1.4190,0.8345,0.0000
1.4200,0.8340,0.0000
1.4210,0.8336,0.0000
1.4220,0.8332,0.0000
1.4230,0.8327,0.0000
1.4240,0.8323,0.0000
1.4250,0.8319,0.0000
1.4260,0.8314,0.0000
1.4270,0.8310,0.0000
1.4280,0.8306,0.0000
1.4290,0.8301,0.0000
1.4300,0.8297,0.0000
1.4310,0.8297,0.0000
1.4320,0.8296,0.0000
1.4330,0.8293,0.0000
1.4340,0.8288,0.0000
1.4350,0.8283,0.0000
1.4360,0.8279,0.0000
1.4370,0.8274,0.0000
1.4380,0.8270,0.0000
1.4390,0.8265,0.0000
1.4400,0.8261,0.0000
1.4410,0.8257,0.0000
1.4420,0.8252,0.0000
1.4430,0.8242,0.0000
1.4440,0.8234,0.0000
1.4450,0.8234,0.0000
1.4460,0.8234,0.0000
1.4470,0.8225,0.0000
1.4480,0.8216,0.0000
1.4490,0.8215,0.0000
1.4500,0.8215,0.0000
1.4510,0.8210,0.0000
1.4520,0.8206,0.0000
1.4530,0.8206,0.0000
1.4540,0.8205,0.0000
1.4550,0.8197,0.0000
1.4560,0.8188,0.0000
1.4570,0.8182,0.0000
1.4580,0.8178,0.0000
1.4590,0.8178,0.0000
1.4600,0.8177,0.0000
1.4610,0.8169,0.0000
1.4620,0.8160,0.0000
1.4630,0.8155,0.0000
1.4640,0.8150,0.0000
1.4650,0.8141,0.0000
1.4660,0.8132,0.0000
1.4670,0.8131,0.0000
1.4680,0.8131,0.0000
1.4690,0.8127,0.0000
1.4700,0.8121,0.0000
1.4710,0.8117,0.0000
1.4720,0.8112,0.0000
1.4730,0.8107,0.0000
1.4740,0.8102,0.0000
1.4750,0.8097,0.0000
1.4760,0.8092,0.0000
1.4770,0.8088,0.0000
1.4780,0.8082,0.0000
1.4790,0.8073,0.0000
1.4800,0.8064,0.0000
1.4810,0.8063,0.0000
1.4820,0.8062,0.0000
1.4830,0.8053,0.0000
1.4840,0.8044,0.0000
1.4850,0.8043,0.0000
1.4860,0.8042,0.0000
1.4870,0.8038,0.0000
1.4880,0.8032,0.0000
1.4890,0.8027,0.0000
1.4900,0.8022,0.0000
1.4910,0.8017,0.0000
1.4920,0.8011,0.0000
1.4930,0.8006,0.0000
1.4940,0.8001,0.0000
1.4950,0.7996,0.0000
1.4960,0.7991,0.0000
1.4970,0.7986,0.0000
1.4980,0.7980,0.0000
1.4990,0.7971,0.0000
1.5000,0.7962,0.0000
1.5010,0.7956,0.0000
1.5020,0.7951,0.0000
1.5030,0.7946,0.0000
1.5040,0.7941,0.0000
1.5050,0.7936,0.0000
1.5060,0.7930,0.0000
1.5070,0.7925,0.0000
1.5080,0.7920,0.0000
1.5090,0.7915,0.0000
1.5100,0.7909,0.0000
1.5110,0.7903,0.0000
1.5120,0.7898,0.0000
1.5130,0.7898,0.0000
1.5140,0.7896,0.0000
1.5150,0.7887,0.0000
1.5160,0.7877,0.0000
1.5170,0.7871,0.0000
1.5180,0.7866,0.0000
1.5190,0.7861,0.0000
1.5200,0.7855,0.0000
1.5210,0.7845,0.0000
1.5220,0.7836,0.0000
1.5230,0.7834,0.0000
1.5240,0.7833,0.0000
1.5250,0.7829,0.0000
1.5260,0.7823,0.0000
1.5270,0.7818,0.0000
1.5280,0.7812,0.0000
1.5290,0.7802,0.0000
1.5300,0.7793,0.0000
1.5310,0.7786,0.0000
1.5320,0.7782,0.0000
1.5330,0.7780,0.0000
1.5340,0.7778,0.0000
1.5350,0.7773,0.0000
1.5360,0.7767,0.0000
1.5370,0.7762,0.0000
1.5380,0.7756,0.0000
1.5390,0.7746,0.0000
1.5400,0.7737,0.0000
1.5410,0.7735,0.0000
1.5420,0.7734,0.0000
1.5430,0.7729,0.0000
1.5440,0.7723,0.0000
1.5450,0.7713,0.0000
1.5460,0.7704,0.0000
1.5470,0.7697,0.0000
1.5480,0.7692,0.0000
1.5490,0.7686,0.0000
1.5500,0.7681,0.0000
1.5510,0.7680,0.0000
1.5520,0.7678,0.0000
1.5530,0.7669,0.0000
1.5540,0.7659,0.0000
1.5550,0.7653,0.0000
1.5560,0.7648,0.0000
1.5570,0.7638,0.0000
1.5580,0.7629,0.0000
1.5590,0.7622,0.0000
1.5600,0.7618,0.0000
1.5610,0.7617,0.0000
1.5620,0.7614,0.0000
1.5630,0.7605,0.0000
1.5640,0.7595,0.0000
1.5650,0.7588,0.0000
1.5660,0.7584,0.0000
1.5670,0.7583,0.0000
1.5680,0.7580,0.0000
1.5690,0.7571,0.0000
1.5700,0.7561,0.0000
1.5710,0.7555,0.0000
1.5720,0.7550,0.0000
1.5730,0.7544,0.0000
1.5740,0.7538,0.0000
1.5750,0.7533,0.0000
1.5760,0.7527,0.0000
1.5770,0.7521,0.0000
1.5780,0.7516,0.0000
1.5790,0.7514,0.0000
1.5800,0.7512,0.0000
1.5810,0.7507,0.0000
1.5820,0.7500,0.0000
1.5830,0.7491,0.0000
1.5840,0.7481,0.0000
1.5850,0.7475,0.0000
1.5860,0.7470,0.0000
1.5870,0.7464,0.0000
1.5880,0.7458,0.0000
1.5890,0.7453,0.0000
1.5900,0.7447,0.0000
1.5910,0.7437,0.0000
1.5920,0.7428,0.0000
1.5930,0.7421,0.0000
1.5940,0.7416,0.0000
1.5950,0.7410,0.0000
1.5960,0.7405,0.0000
1.5970,0.7399,0.0000
1.5980,0.7393,0.0000
1.5990,0.7387,0.0000
1.6000,0.7382,0.0000
1.6010,0.7375,0.0000
1.6020,0.7370,0.0000
1.6030,0.7369,0.0000
1.6040,0.7366,0.0000
1.6050,0.7357,0.0000
1.6060,0.7347,0.0000
1.6070,0.7340,0.0000
1.6080,0.7335,0.0000
1.6090,0.7330,0.0000
1.6100,0.7324,0.0000
1.6110,0.7314,0.0000
1.6120,0.7304,0.0000
1.6130,0.7298,0.0000
1.6140,0.7293,0.0000
1.6150,0.7286,0.0000
1.6160,0.7281,0.0000
1.6170,0.7280,0.0000
1.6180,0.7277,0.0000
1.6190,0.7268,0.0000
1.6200,0.7258,0.0000
1.6210,0.7251,0.0000
1.6220,0.7246,0.0000
1.6230,0.7240,0.0000
1.6240,0.7234,0.0000
1.6250,0.7229,0.0000
1.6260,0.7223,0.0000
1.6270,0.7217,0.0000
1.6280,0.7211,0.0000
1.6290,0.7205,0.0000
1.6300,0.7199,0.0000
1.6310,0.7193,0.0000
1.6320,0.7187,0.0000
1.6330,0.7181,0.0000
1.6340,0.7175,0.0000
1.6350,0.7170,0.0000
1.6360,0.7164,0.0000
1.6370,0.7158,0.0000
1.6380,0.7152,0.0000
1.6390,0.7146,0.0000
1.6400,0.7140,0.0000
1.6410,0.7135,0.0000
1.6420,0.7128,0.0000
1.6430,0.7119,0.0000
1.6440,0.7109,0.0000
1.6450,0.7103,0.0000
1.6460,0.7097,0.0000
1.6470,0.7091,0.0000
1.6480,0.7085,0.0000
1.6490,0.7084,0.0000
1.6500,0.7081,0.0000
1.6510,0.7072,0.0000
1.6520,0.7062,0.0000
1.6530,0.7055,0.0000
1.6540,0.7050,0.0000
1.6550,0.7044,0.0000
1.6560,0.7038,0.0000
1.6570,0.7032,0.0000
1.6580,0.7026,0.0000
1.6590,0.7020,0.0000
1.6600,0.7014,0.0000
1.6610,0.7004,0.0000
1.6620,0.6995,0.0000
1.6630,0.6992,0.0000
1.6640,0.6990,0.0000
1.6650,0.6981,0.0000
1.6660,0.6971,0.0000
1.6670,0.6969,0.0000
1.6680,0.6966,0.0000
1.6690,0.6957,0.0000
1.6700,0.6947,0.0000
1.6710,0.6945,0.0000
1.6720,0.6942,0.0000
1.6730,0.6934,0.0000
1.6740,0.6923,0.0000
1.6750,0.6913,0.0000
1.6760,0.6904,0.0000
1.6770,0.6901,0.0000
1.6780,0.6899,0.0000
1.6790,0.6894,0.0000
1.6800,0.6887,0.0000
1.6810,0.6881,0.0000
1.6820,0.6875,0.0000
1.6830,0.6869,0.0000
1.6840,0.6863,0.0000
1.6850,0.6857,0.0000
1.6860,0.6851,0.0000
1.6870,0.6845,0.0000
1.6880,0.6839,0.0000
1.6890,0.6833,0.0000
1.6900,0.6827,0.0000
1.6910,0.6821,0.0000
1.6920,0.6815,0.0000
1.6930,0.6809,0.0000
1.6940,0.6803,0.0000
1.6950,0.6797,0.0000
1.6960,0.6791,0.0000
1.6970,0.6786,0.0000
1.6980,0.6780,0.0000
1.6990,0.6773,0.0000
1.7000,0.6768,0.0000
1.7010,0.6762,0.0000
1.7020,0.6756,0.0000
1.7030,0.6746,0.0000
1.7040,0.6737,0.0000
1.7050,0.6730,0.0000
1.7060,0.6725,0.0000
1.7070,0.6719,0.0000
1.7080,0.6713,0.0000
1.7090,0.6707,0.0000
1.7100,0.6701,0.0000
1.7110,0.6696,0.0000
1.7120,0.6689,0.0000
1.7130,0.6679,0.0000
1.7140,0.6670,0.0000
1.7150,0.6667,0.0000
1.7160,0.6665,0.0000
1.7170,0.6661,0.0000
1.7180,0.6654,0.0000
1.7190,0.6644,0.0000
1.7200,0.6635,0.0000
1.7210,0.6629,0.0000
1.7220,0.6623,0.0000
1.7230,0.6617,0.0000
1.7240,0.6611,0.0000
1.7250,0.6606,0.0000
1.7260,0.6600,0.0000
1.7270,0.6594,0.0000
1.7280,0.6588,0.0000
1.7290,0.6582,0.0000
1.7300,0.6577,0.0000
1.7310,0.6571,0.0000
1.7320,0.6565,0.0000
1.7330,0.6559,0.0000
1.7340,0.6554,0.0000
1.7350,0.6548,0.0000
1.7360,0.6542,0.0000
1.7370,0.6536,0.0000
1.7380,0.6530,0.0000
1.7390,0.6525,0.0000
1.7400,0.6519,0.0000
1.7410,0.6513,0.0000
1.7420,0.6507,0.0000
1.7430,0.6502,0.0000
1.7440,0.6496,0.0000
1.7450,0.6490,0.0000
1.7460,0.6484,0.0000
1.7470,0.6479,0.0000
1.7480,0.6473,0.0000
1.7490,0.6467,0.0000
1.7500,0.6461,0.0000
1.7510,0.6456,0.0000
1.7520,0.6450,0.0000
1.7530,0.6444,0.0000
1.7540,0.6438,0.0000
1.7550,0.6432,0.0000
1.7560,0.6427,0.0000
1.7570,0.6421,0.0000
1.7580,0.6415,0.0000
1.7590,0.6406,0.0000
1.7600,0.6397,0.0000
1.7610,0.6391,0.0000
1.7620,0.6385,0.0000
1.7630,0.6379,0.0000
1.7640,0.6374,0.0000
1.7650,0.6368,0.0000
1.7660,0.6362,0.0000
1.7670,0.6356,0.0000
1.7680,0.6350,0.0000
1.7690,0.6345,0.0000
1.7700,0.6339,0.0000
1.7710,0.6333,0.0000
1.7720,0.6327,0.0000
1.7730,0.6321,0.0000
1.7740,0.6315,0.0000
1.7750,0.6309,0.0000
1.7760,0.6303,0.0000
1.7770,0.6298,0.0000
1.7780,0.6291,0.0000
1.7790,0.6282,0.0000
1.7800,0.6273,0.0000
1.7810,0.6270,0.0000
1.7820,0.6268,0.0000
1.7830,0.6262,0.0000
1.7840,0.6256,0.0000
1.7850,0.6250,0.0000
1.7860,0.6244,0.0000
1.7870,0.6238,0.0000
1.7880,0.6232,0.0000
1.7890,0.6226,0.0000
1.7900,0.6220,0.0000
1.7910,0.6214,0.0000
1.7920,0.6208,0.0000
1.7930,0.6202,0.0000
1.7940,0.6197,0.0000
1.7950,0.6191,0.0000
1.7960,0.6185,0.0000
1.7970,0.6179,0.0000
1.7980,0.6173,0.0000
1.7990,0.6167,0.0000
1.8000,0.6161,0.0000
1.8010,0.6156,0.0000
1.8020,0.6149,0.0000
1.8030,0.6140,0.0000
1.8040,0.6131,0.0000
1.8050,0.6129,0.0000
1.8060,0.6126,0.0000
1.8070,0.6117,0.0000
1.8080,0.6108,0.0000
1.8090,0.6105,0.0000
1.8100,0.6103,0.0000
1.8110,0.6095,0.0000
1.8120,0.6085,0.0000
1.8130,0.6079,0.0000
1.8140,0.6074,0.0000
1.8150,0.6069,0.0000
1.8160,0.6063,0.0000
1.8170,0.6057,0.0000
1.8180,0.6052,0.0000
1.8190,0.6046,0.0000
1.8200,0.6041,0.0000
1.8210,0.6035,0.0000
1.8220,0.6030,0.0000
1.8230,0.6024,0.0000
1.8240,0.6019,0.0000
1.8250,0.6013,0.0000
1.8260,0.6008,0.0000
1.8270,0.6002,0.0000
1.8280,0.5997,0.0000
1.8290,0.5991,0.0000
1.8300,0.5986,0.0000
1.8310,0.5981,0.0000
1.8320,0.5975,0.0000
1.8330,0.5970,0.0000
1.8340,0.5964,0.0000
1.8350,0.5959,0.0000
1.8360,0.5954,0.0000
1.8370,0.5948,0.0000
1.8380,0.5943,0.0000
1.8390,0.5938,0.0000
1.8400,0.5932,0.0000
1.8410,0.5923,0.0000
1.8420,0.5915,0.0000
1.8430,0.5909,0.0000
1.8440,0.5904,0.0000
1.8450,0.5899,0.0000
1.8460,0.5893,0.0000
1.8470,0.5888,0.0000
1.8480,0.5883,0.0000
1.8490,0.5880,0.0000
1.8500,0.5878,0.0000
1.8510,0.5873,0.0000
1.8520,0.5867,0.0000
1.8530,0.5861,0.0000
1.8540,0.5856,0.0000
1.8550,0.5851,0.0000
1.8560,0.5845,0.0000
1.8570,0.5837,0.0000
1.8580,0.5828,0.0000
1.8590,0.5822,0.0000
1.8600,0.5817,0.0000
1.8610,0.5814,0.0000
1.8620,0.5812,0.0000
1.8630,0.5807,0.0000
1.8640,0.5801,0.0000
1.8650,0.5795,0.0000
1.8660,0.5789,0.0000
1.8670,0.5784,0.0000
1.8680,0.5778,0.0000
1.8690,0.5773,0.0000
1.8700,0.5767,0.0000
1.8710,0.5759,0.0000
1.8720,0.5750,0.0000
1.8730,0.5744,0.0000
1.8740,0.5739,0.0000
1.8750,0.5733,0.0000
1.8760,0.5727,0.0000
1.8770,0.5722,0.0000
1.8780,0.5716,0.0000
1.8790,0.5711,0.0000
1.8800,0.5705,0.0000
1.8810,0.5699,0.0000
1.8820,0.5694,0.0000
1.8830,0.5688,0.0000
1.8840,0.5683,0.0000
1.8850,0.5677,0.0000
1.8860,0.5672,0.0000
1.8870,0.5666,0.0000
1.8880,0.5661,0.0000
1.8890,0.5655,0.0000
1.8900,0.5650,0.0000
1.8910,0.5644,0.0000
1.8920,0.5639,0.0000
1.8930,0.5633,0.0000
1.8940,0.5628,0.0000
1.8950,0.5626,0.0000
1.8960,0.5623,0.0000
1.8970,0.5614,0.0000
1.8980,0.5606,0.0000
1.8990,0.5603,0.0000
1.9000,0.5601,0.0000
1.9010,0.5596,0.0000
1.9020,0.5590,0.0000
1.9030,0.5585,0.0000
1.9040,0.5580,0.0000
1.9050,0.5571,0.0000
1.9060,0.5563,0.0000
1.9070,0.5558,0.0000
1.9080,0.5553,0.0000
1.9090,0.5547,0.0000
1.9100,0.5542,0.0000
1.9110,0.5536,0.0000
1.9120,0.5531,0.0000
1.9130,0.5529,0.0000
1.9140,0.5527,0.0000
1.9150,0.5522,0.0000
1.9160,0.5516,0.0000
1.9170,0.5508,0.0000
1.9180,0.5500,0.0000
1.9190,0.5494,0.0000
1.9200,0.5490,0.0000
1.9210,0.5484,0.0000
1.9220,0.5479,0.0000
1.9230,0.5477,0.0000
1.9240,0.5475,0.0000
1.9250,0.5470,0.0000
1.9260,0.5464,0.0000
1.9270,0.5459,0.0000
1.9280,0.5454,0.0000
1.9290,0.5446,0.0000
1.9300,0.5438,0.0000
1.9310,0.5432,0.0000
1.9320,0.5428,0.0000
1.9330,0.5422,0.0000
1.9340,0.5417,0.0000
1.9350,0.5412,0.0000
1.9360,0.5407,0.0000
1.9370,0.5402,0.0000
1.9380,0.5397,0.0000
1.9390,0.5392,0.0000
1.9400,0.5387,0.0000
1.9410,0.5382,0.0000
1.9420,0.5376,0.0000
1.9430,0.5371,0.0000
1.9440,0.5366,0.0000
1.9450,0.5361,0.0000
1.9460,0.5356,0.0000
1.9470,0.5351,0.0000
1.9480,0.5346,0.0000
1.9490,0.5340,0.0000
1.9500,0.5336,0.0000
1.9510,0.5333,0.0000
1.9520,0.5331,0.0000
1.9530,0.5323,0.0000
1.9540,0.5315,0.0000
1.9550,0.5309,0.0000
1.9560,0.5305,0.0000
1.9570,0.5300,0.0000
1.9580,0.5294,0.0000
1.9590,0.5289,0.0000
1.9600,0.5284,0.0000
1.9610,0.5279,0.0000
1.9620,0.5274,0.0000
1.9630,0.5269,0.0000
1.9640,0.5264,0.0000
1.9650,0.5259,0.0000
1.9660,0.5254,0.0000
1.9670,0.5248,0.0000
1.9680,0.5244,0.0000
1.9690,0.5241,0.0000
1.9700,0.5239,0.0000
1.9710,0.5234,0.0000
1.9720,0.5229,0.0000
1.9730,0.5224,0.0000
1.9740,0.5219,0.0000
1.9750,0.5214,0.0000
1.9760,0.5209,0.0000
1.9770,0.5204,0.0000
1.9780,0.5199,0.0000
1.9790,0.5194,0.0000
1.9800,0.5189,0.0000
1.9810,0.5184,0.0000
1.9820,0.5179,0.0000
1.9830,0.5174,0.0000
1.9840,0.5169,0.0000
1.9850,0.5164,0.0000
1.9860,0.5159,0.0000
1.9870,0.5154,0.0000
1.9880,0.5149,0.0000
1.9890,0.5144,0.0000
1.9900,0.5139,0.0000
1.9910,0.5134,0.0000
1.9920,0.5129,0.0000
1.9930,0.5124,0.0000
1.9940,0.5119,0.0000
1.9950,0.5114,0.0000
1.9960,0.5109,0.0000
1.9970,0.5103,0.0000
1.9980,0.5099,0.0000
1.9990,0.5102,0.0000
2.0000,0.5105,0.0000
2.0010,0.5104,0.0000
2.0020,0.5100,0.0000
2.0030,0.5094,0.0000
2.0040,0.5087,0.0000
2.0050,0.5081,0.0000
2.0060,0.5076,0.0000
2.0070,0.5071,0.0000
2.0080,0.5066,0.0000
2.0090,0.5061,0.0000
2.0100,0.5056,0.0000
2.0110,0.5051,0.0000
2.0120,0.5047,0.0000
2.0130,0.5042,0.0000
2.0140,0.5037,0.0000
2.0150,0.5032,0.0000
2.0160,0.5027,0.0000
2.0170,0.5023,0.0000
2.0180,0.5018,0.0000
2.0190,0.5013,0.0000
2.0200,0.5008,0.0000
2.0210,0.5003,0.0000
2.0220,0.4999,0.0000
2.0230,0.4994,0.0000
2.0240,0.4989,0.0000
2.0250,0.4984,0.0000
2.0260,0.4980,0.0000
2.0270,0.4975,0.0000
2.0280,0.4970,0.0000
2.0290,0.4966,0.0000
2.0300,0.4961,0.0000
2.0310,0.4956,0.0000
2.0320,0.4952,0.0000
2.0330,0.4947,0.0000
2.0340,0.4942,0.0000
2.0350,0.4938,0.0000
2.0360,0.4933,0.0000
2.0370,0.4928,0.0000
2.0380,0.4924,0.0000
2.0390,0.4919,0.0000
2.0400,0.4915,0.0000
2.0410,0.4910,0.0000
2.0420,0.4905,0.0000
2.0430,0.4900,0.0000
2.0440,0.4896,0.0000
2.0450,0.4891,0.0000
2.0460,0.4888,0.0000
2.0470,0.4885,0.0000
2.0480,0.4881,0.0000
2.0490,0.4878,0.0000
2.0500,0.4874,0.0000
2.0510,0.4868,0.0000
2.0520,0.4863,0.0000
2.0530,0.4857,0.0000
2.0540,0.4851,0.0000
2.0550,0.4845,0.0000
2.0560,0.4841,0.0000
2.0570,0.4838,0.0000
2.0580,0.4834,0.0000
2.0590,0.4831,0.0000
2.0600,0.4827,0.0000
2.0610,0.4823,0.0000
2.0620,0.4819,0.0000
2.0630,0.4814,0.0000
2.0640,0.4809,0.0000
2.0650,0.4804,0.0000
2.0660,0.4800,0.0000
2.0670,0.4795,0.0000
2.0680,0.4791,0.0000
2.0690,0.4786,0.0000
2.0700,0.4781,0.0000
2.0710,0.4777,0.0000
2.0720,0.4772,0.0000
2.0730,0.4767,0.0000
2.0740,0.4763,0.0000
2.0750,0.4758,0.0000
2.0760,0.4754,0.0000
2.0770,0.4749,0.0000
2.0780,0.4744,0.0000
2.0790,0.4740,0.0000
2.0800,0.4735,0.0000
2.0810,0.4731,0.0000
2.0820,0.4726,0.0000
2.0830,0.4721,0.0000
2.0840,0.4717,0.0000
2.0850,0.4712,0.0000
2.0860,0.4708,0.0000
2.0870,0.4703,0.0000
2.0880,0.4698,0.0000
2.0890,0.4694,0.0000
2.0900,0.4690,0.0000
2.0910,0.4686,0.0000
2.0920,0.4682,0.0000
2.0930,0.4679,0.0000
2.0940,0.4675,0.0000
2.0950,0.4672,0.0000
2.0960,0.4667,0.0000
2.0970,0.4663,0.0000
2.0980,0.4658,0.0000
2.0990,0.4654,0.0000
2.1000,0.4649,0.0000
2.1010,0.4644,0.0000
2.1020,0.4640,0.0000
2.1030,0.4635,0.0000
2.1040,0.4631,0.0000
2.1050,0.4626,0.0000
2.1060,0.4622,0.0000
2.1070,0.4617,0.0000
2.1080,0.4613,0.0000
2.1090,0.4608,0.0000
2.1100,0.4604,0.0000
2.1110,0.4599,0.0000
2.1120,0.4595,0.0000
2.1130,0.4590,0.0000
2.1140,0.4586,0.0000
2.1150,0.4581,0.0000
2.1160,0.4577,0.0000
2.1170,0.4572,0.0000
2.1180,0.4568,0.0000
2.1190,0.4563,0.0000
2.1200,0.4559,0.0000
2.1210,0.4554,0.0000
2.1220,0.4550,0.0000
2.1230,0.4545,0.0000
2.1240,0.4541,0.0000
2.1250,0.4537,0.0000
2.1260,0.4533,0.0000
2.1270,0.4530,0.0000
2.1280,0.4526,0.0000
2.1290,0.4523,0.0000
2.1300,0.4519,0.0000
2.1310,0.4515,0.0000
2.1320,0.4511,0.0000
2.1330,0.4506,0.0000
2.1340,0.4502,0.0000
2.1350,0.4497,0.0000
2.1360,0.4493,0.0000
2.1370,0.4488,0.0000
2.1380,0.4484,0.0000
2.1390,0.4480,0.0000
2.1400,0.4475,0.0000
2.1410,0.4471,0.0000
2.1420,0.4466,0.0000
2.1430,0.4462,0.0000
2.1440,0.4458,0.0000
2.1450,0.4453,0.0000
2.1460,0.4449,0.0000
2.1470,0.4445,0.0000
2.1480,0.4441,0.0000
2.1490,0.4436,0.0000
2.1500,0.4432,0.0000
2.1510,0.4428,0.0000
2.1520,0.4423,0.0000
2.1530,0.4419,0.0000
2.1540,0.4414,0.0000
2.1550,0.4410,0.0000
2.1560,0.4406,0.0000
2.1570,0.4402,0.0000
2.1580,0.4397,0.0000
2.1590,0.4393,0.0000
2.1600,0.4389,0.0000
2.1610,0.4384,0.0000
2.1620,0.4380,0.0000
2.1630,0.4375,0.0000
2.1640,0.4371,0.0000
2.1650,0.4367,0.0000
2.1660,0.4364,0.0000
2.1670,0.4360,0.0000
2.1680,0.4357,0.0000
2.1690,0.4354,0.0000
2.1700,0.4350,0.0000
2.1710,0.4346,0.0000
2.1720,0.4342,0.0000
2.1730,0.4338,0.0000
2.1740,0.4333,0.0000
2.1750,0.4329,0.0000
2.1760,0.4325,0.0000
2.1770,0.4320,0.0000
2.1780,0.4316,0.0000
2.1790,0.4312,0.0000
2.1800,0.4308,0.0000
2.1810,0.4304,0.0000
2.1820,0.4299,0.0000
2.1830,0.4295,0.0000
2.1840,0.4291,0.0000
2.1850,0.4286,0.0000
2.1860,0.4282,0.0000
2.1870,0.4278,0.0000
2.1880,0.4274,0.0000
2.1890,0.4269,0.0000
2.1900,0.4265,0.0000
2.1910,0.4261,0.0000
2.1920,0.4257,0.0000
2.1930,0.4252,0.0000
2.1940,0.4248,0.0000
2.1950,0.4244,0.0000
2.1960,0.4239,0.0000
2.1970,0.4235,0.0000
2.1980,0.4231,0.0000
2.1990,0.4227,0.0000
2.2000,0.4223,0.0000
2.2010,0.4220,0.0000
2.2020,0.4216,0.0000
2.2030,0.4213,0.0000
2.2040,0.4210,0.0000
2.2050,0.4207,0.0000
2.2060,0.4203,0.0000
2.2070,0.4199,0.0000
2.2080,0.4195,0.0000
2.2090,0.4191,0.0000
2.2100,0.4187,0.0000
2.2110,0.4183,0.0000
2.2120,0.4180,0.0000
2.2130,0.4176,0.0000
2.2140,0.4172,0.0000
2.2150,0.4168,0.0000
2.2160,0.4165,0.0000
2.2170,0.4161,0.0000
2.2180,0.4157,0.0000
2.2190,0.4154,0.0000
2.2200,0.4150,0.0000
2.2210,0.4146,0.0000
2.2220,0.4143,0.0000
2.2230,0.4139,0.0000
2.2240,0.4135,0.0000
2.2250,0.4132,0.0000
2.2260,0.4128,0.0000
2.2270,0.4124,0.0000
2.2280,0.4121,0.0000
2.2290,0.4117,0.0000
2.2300,0.4113,0.0000
2.2310,0.4109,0.0000
2.2320,0.4105,0.0000
2.2330,0.4101,0.0000
2.2340,0.4098,0.0000
2.2350,0.4094,0.0000
2.2360,0.4091,0.0000
2.2370,0.4088,0.0000
2.2380,0.4085,0.0000
2.2390,0.4081,0.0000
2.2400,0.4078,0.0000
2.2410,0.4074,0.0000
2.2420,0.4070,0.0000
2.2430,0.4065,0.0000
2.2440,0.4061,0.0000
2.2450,0.4056,0.0000
2.2460,0.4052,0.0000
2.2470,0.4047,0.0000
2.2480,0.4043,0.0000
2.2490,0.4038,0.0000
2.2500,0.4034,0.0000
2.2510,0.4029,0.0000
2.2520,0.4025,0.0000
2.2530,0.4020,0.0000
2.2540,0.4016,0.0000
2.2550,0.4011,0.0000
2.2560,0.4007,0.0000
2.2570,0.4002,0.0000
2.2580,0.3998,0.0000
2.2590,0.3993,0.0000
2.2600,0.3989,0.0000
2.2610,0.3984,0.0000
2.2620,0.3980,0.0000
2.2630,0.3976,0.0000
2.2640,0.3972,0.0000
2.2650,0.3968,0.0000
2.2660,0.3965,0.0000
2.2670,0.3962,0.0000
2.2680,0.3959,0.0000
2.2690,0.3956,0.0000
2.2700,0.3952,0.0000
2.2710,0.3949,0.0000
2.2720,0.3945,0.0000
2.2730,0.3941,0.0000
2.2740,0.3938,0.0000
2.2750,0.3934,0.0000
2.2760,0.3930,0.0000
2.2770,0.3927,0.0000
2.2780,0.3923,0.0000
2.2790,0.3919,0.0000
2.2800,0.3916,0.0000
2.2810,0.3912,0.0000
2.2820,0.3909,0.0000
2.2830,0.3905,0.0000
2.2840,0.3902,0.0000
2.2850,0.3898,0.0000
2.2860,0.3895,0.0000
2.2870,0.3891,0.0000
2.2880,0.3888,0.0000
2.2890,0.3885,0.0000
2.2900,0.3881,0.0000
2.2910,0.3878,0.0000
2.2920,0.3875,0.0000
2.2930,0.3871,0.0000
2.2940,0.3868,0.0000
2.2950,0.3864,0.0000
2.2960,0.3861,0.0000
2.2970,0.3857,0.0000
2.2980,0.3854,0.0000
2.2990,0.3851,0.0000
2.3000,0.3847,0.0000
2.3010,0.3843,0.0000
2.3020,0.3840,0.0000
2.3030,0.3836,0.0000
2.3040,0.3832,0.0000
2.3050,0.3829,0.0000
2.3060,0.3826,0.0000
2.3070,0.3823,0.0000
2.3080,0.3821,0.0000
2.3090,0.3818,0.0000
2.3100,0.3815,0.0000
2.3110,0.3812,0.0000
2.3120,0.3808,0.0000
2.3130,0.3805,0.0000
2.3140,0.3801,0.0000
2.3150,0.3797,0.0000
2.3160,0.3793,0.0000
2.3170,0.3790,0.0000
2.3180,0.3786,0.0000
2.3190,0.3783,0.0000
2.3200,0.3779,0.0000
2.3210,0.3775,0.0000
2.3220,0.3772,0.0000
2.3230,0.3768,0.0000
2.3240,0.3765,0.0000
2.3250,0.3761,0.0000
2.3260,0.3758,0.0000
2.3270,0.3754,0.0000
2.3280,0.3750,0.0000
2.3290,0.3747,0.0000
2.3300,0.3743,0.0000
2.3310,0.3740,0.0000
2.3320,0.3736,0.0000
2.3330,0.3732,0.0000
2.3340,0.3729,0.0000
2.3350,0.3725,0.0000
2.3360,0.3722,0.0000
2.3370,0.3720,0.0000
2.3380,0.3717,0.0000
2.3390,0.3714,0.0000
2.3400,0.3712,0.0000
2.3410,0.3708,0.0000
2.3420,0.3705,0.0000
2.3430,0.3701,0.0000
2.3440,0.3698,0.0000
2.3450,0.3694,0.0000
2.3460,0.3690,0.0000
2.3470,0.3687,0.0000
2.3480,0.3683,0.0000
2.3490,0.3680,0.0000
2.3500,0.3677,0.0000
2.3510,0.3673,0.0000
2.3520,0.3670,0.0000
2.3530,0.3666,0.0000
2.3540,0.3663,0.0000
2.3550,0.3659,0.0000
2.3560,0.3656,0.0000
2.3570,0.3652,0.0000
2.3580,0.3649,0.0000
2.3590,0.3645,0.0000
2.3600,0.3642,0.0000
2.3610,0.3639,0.0000
2.3620,0.3635,0.0000
2.3630,0.3632,0.0000
2.3640,0.3629,0.0000
2.3650,0.3625,0.0000
2.3660,0.3622,0.0000
2.3670,0.3618,0.0000
2.3680,0.3615,0.0000
2.3690,0.3612,0.0000
2.3700,0.3609,0.0000
2.3710,0.3605,0.0000
2.3720,0.3602,0.0000
2.3730,0.3598,0.0000
2.3740,0.3595,0.0000
2.3750,0.3592,0.0000
2.3760,0.3589,0.0000
2.3770,0.3587,0.0000
2.3780,0.3584,0.0000
2.3790,0.3582,0.0000
2.3800,0.3579,0.0000
2.3810,0.3576,0.0000
2.3820,0.3573,0.0000
2.3830,0.3570,0.0000
2.3840,0.3566,0.0000
2.3850,0.3563,0.0000
2.3860,0.3560,0.0000
2.3870,0.3557,0.0000
2.3880,0.3553,0.0000
2.3890,0.3550,0.0000
2.3900,0.3547,0.0000
2.3910,0.3544,0.0000
2.3920,0.3540,0.0000
2.3930,0.3537,0.0000
2.3940,0.3534,0.0000
2.3950,0.3531,0.0000
2.3960,0.3528,0.0000
2.3970,0.3524,0.0000
2.3980,0.3521,0.0000
2.3990,0.3518,0.0000
2.4000,0.3515,0.0000
2.4010,0.3511,0.0000
2.4020,0.3508,0.0000
2.4030,0.3505,0.0000
2.4040,0.3502,0.0000
2.4050,0.3498,0.0000
2.4060,0.3495,0.0000
2.4070,0.3492,0.0000
2.4080,0.3489,0.0000
2.4090,0.3485,0.0000
2.4100,0.3482,0.0000
2.4110,0.3479,0.0000
2.4120,0.3475,0.0000
2.4130,0.3472,0.0000
2.4140,0.3469,0.0000
2.4150,0.3466,0.0000
2.4160,0.3463,0.0000
2.4170,0.3460,0.0000
2.4180,0.3458,0.0000
2.4190,0.3455,0.0000
2.4200,0.3453,0.0000
2.4210,0.3450,0.0000
2.4220,0.3446,0.0000
2.4230,0.3443,0.0000
2.4240,0.3440,0.0000
2.4250,0.3436,0.0000
2.4260,0.3433,0.0000
2.4270,0.3430,0.0000
2.4280,0.3427,0.0000
2.4290,0.3423,0.0000
2.4300,0.3420,0.0000
2.4310,0.3417,0.0000
2.4320,0.3414,0.0000
2.4330,0.3410,0.0000
2.4340,0.3407,0.0000
2.4350,0.3404,0.0000
2.4360,0.3401,0.0000
2.4370,0.3398,0.0000
2.4380,0.3395,0.0000
2.4390,0.3391,0.0000
2.4400,0.3388,0.0000
2.4410,0.3385,0.0000
2.4420,0.3382,0.0000
2.4430,0.3379,0.0000
2.4440,0.3376,0.0000
2.4450,0.3373,0.0000
2.4460,0.3370,0.0000
2.4470,0.3366,0.0000
2.4480,0.3363,0.0000
2.4490,0.3360,0.0000
2.4500,0.3357,0.0000
2.4510,0.3354,0.0000
2.4520,0.3351,0.0000
2.4530,0.3348,0.0000
2.4540,0.3345,0.0000
2.4550,0.3342,0.0000
2.4560,0.3339,0.0000
2.4570,0.3336,0.0000
2.4580,0.3332,0.0000
2.4590,0.3329,0.0000
2.4600,0.3326,0.0000
2.4610,0.3323,0.0000
2.4620,0.3320,0.0000
2.4630,0.3317,0.0000
2.4640,0.3314,0.0000
2.4650,0.3311,0.0000
2.4660,0.3308,0.0000
2.4670,0.3305,0.0000
2.4680,0.3302,0.0000
2.4690,0.3299,0.0000
2.4700,0.3296,0.0000
2.4710,0.3293,0.0000
2.4720,0.3290,0.0000
2.4730,0.3287,0.0000
2.4740,0.3284,0.0000
2.4750,0.3281,0.0000
2.4760,0.3278,0.0000
2.4770,0.3275,0.0000
2.4780,0.3272,0.0000
2.4790,0.3269,0.0000
2.4800,0.3266,0.0000
2.4810,0.3263,0.0000
2.4820,0.3261,0.0000
2.4830,0.3259,0.0000
2.4840,0.3257,0.0000
2.4850,0.3254,0.0000
2.4860,0.3251,0.0000
2.4870,0.3248,0.0000
2.4880,0.3245,0.0000
2.4890,0.3242,0.0000
2.4900,0.3239,0.0000
2.4910,0.3236,0.0000
2.4920,0.3233,0.0000
2.4930,0.3230,0.0000
2.4940,0.3227,0.0000
2.4950,0.3224,0.0000
2.4960,0.3221,0.0000
2.4970,0.3218,0.0000
2.4980,0.3215,0.0000
2.4990,0.3212,0.0000
2.5000,0.3210,0.0000
2.5010,0.3207,0.0000
2.5020,0.3204,0.0000
2.5030,0.3201,0.0000
2.5040,0.3198,0.0000
2.5050,0.3195,0.0000
2.5060,0.3192,0.0000
2.5070,0.3189,0.0000
2.5080,0.3186,0.0000
2.5090,0.3183,0.0000
2.5100,0.3180,0.0000
2.5110,0.3177,0.0000
2.5120,0.3174,0.0000
2.5130,0.3171,0.0000
2.5140,0.3169,0.0000
2.5150,0.3166,0.0000
2.5160,0.3163,0.0000
2.5170,0.3160,0.0000
2.5180,0.3157,0.0000
2.5190,0.3154,0.0000
2.5200,0.3151,0.0000
2.5210,0.3148,0.0000
2.5220,0.3145,0.0000
2.5230,0.3142,0.0000
2.5240,0.3140,0.0000
2.5250,0.3137,0.0000
2.5260,0.3134,0.0000
2.5270,0.3131,0.0000
2.5280,0.3128,0.0000
2.5290,0.3125,0.0000
2.5300,0.3122,0.0000
2.5310,0.3120,0.0000
2.5320,0.3117,0.0000
2.5330,0.3114,0.0000
2.5340,0.3111,0.0000
2.5350,0.3108,0.0000
2.5360,0.3106,0.0000
2.5370,0.3104,0.0000
2.5380,0.3102,0.0000
2.5390,0.3100,0.0000
2.5400,0.3097,0.0000
2.5410,0.3095,0.0000
2.5420,0.3092,0.0000
2.5430,0.3089,0.0000
2.5440,0.3086,0.0000
2.5450,0.3083,0.0000
2.5460,0.3081,0.0000
2.5470,0.3078,0.0000
2.5480,0.3075,0.0000
2.5490,0.3072,0.0000
2.5500,0.3070,0.0000
2.5510,0.3067,0.0000
2.5520,0.3064,0.0000
2.5530,0.3061,0.0000
2.5540,0.3058,0.0000
2.5550,0.3056,0.0000
2.5560,0.3053,0.0000
2.5570,0.3050,0.0000
2.5580,0.3047,0.0000
2.5590,0.3045,0.0000
2.5600,0.3042,0.0000
2.5610,0.3039,0.0000
2.5620,0.3036,0.0000
2.5630,0.3034,0.0000
2.5640,0.3031,0.0000
2.5650,0.3028,0.0000
2.5660,0.3025,0.0000
2.5670,0.3022,0.0000
2.5680,0.3020,0.0000
2.5690,0.3017,0.0000
2.5700,0.3015,0.0000
2.5710,0.3012,0.0000
2.5720,0.3010,0.0000
2.5730,0.3008,0.0000
2.5740,0.3006,0.0000
2.5750,0.3004,0.0000
2.5760,0.3002,0.0000
2.5770,0.2999,0.0000
2.5780,0.2996,0.0000
2.5790,0.2993,0.0000
2.5800,0.2991,0.0000
2.5810,0.2988,0.0000
2.5820,0.2985,0.0000
2.5830,0.2982,0.0000
2.5840,0.2980,0.0000
2.5850,0.2977,0.0000
2.5860,0.2975,0.0000
2.5870,0.2972,0.0000
2.5880,0.2969,0.0000
2.5890,0.2966,0.0000
2.5900,0.2964,0.0000
2.5910,0.2961,0.0000
2.5920,0.2959,0.0000
2.5930,0.2956,0.0000
2.5940,0.2953,0.0000
2.5950,0.2951,0.0000
2.5960,0.2948,0.0000
2.5970,0.2945,0.0000
2.5980,0.2943,0.0000
2.5990,0.2940,0.0000
2.6000,0.2938,0.0000
2.6010,0.2935,0.0000
2.6020,0.2932,0.0000
2.6030,0.2930,0.0000
2.6040,0.2927,0.0000
2.6050,0.2924,0.0000
2.6060,0.2922,0.0000
2.6070,0.2919,0.0000
2.6080,0.2917,0.0000
2.6090,0.2914,0.0000
2.6100,0.2911,0.0000
2.6110,0.2909,0.0000
2.6120,0.2906,0.0000
2.6130,0.2904,0.0000
2.6140,0.2901,0.0000
2.6150,0.2898,0.0000
2.6160,0.2896,0.0000
2.6170,0.2893,0.0000
2.6180,0.2891,0.0000
2.6190,0.2888,0.0000
2.6200,0.2886,0.0000
2.6210,0.2883,0.0000
2.6220,0.2880,0.0000
2.6230,0.2878,0.0000
2.6240,0.2875,0.0000
2.6250,0.2873,0.0000
2.6260,0.2870,0.0000
2.6270,0.2868,0.0000
2.6280,0.2865,0.0000
2.6290,0.2863,0.0000
2.6300,0.2860,0.0000
2.6310,0.2857,0.0000
2.6320,0.2854,0.0000
2.6330,0.2851,0.0000
2.6340,0.2848,0.0000
2.6350,0.2845,0.0000
2.6360,0.2842,0.0000
2.6370,0.2839,0.0000
2.6380,0.2837,0.0000
2.6390,0.2834,0.0000
2.6400,0.2832,0.0000
2.6410,0.2829,0.0000
2.6420,0.2827,0.0000
2.6430,0.2824,0.0000
2.6440,0.2822,0.0000
2.6450,0.2820,0.0000
2.6460,0.2818,0.0000
2.6470,0.2816,0.0000
2.6480,0.2814,0.0000
2.6490,0.2812,0.0000
2.6500,0.2810,0.0000
2.6510,0.2808,0.0000
2.6520,0.2805,0.0000
2.6530,0.2803,0.0000
2.6540,0.2800,0.0000
2.6550,0.2798,0.0000
2.6560,0.2795,0.0000
2.6570,0.2793,0.0000
2.6580,0.2790,0.0000
2.6590,0.2788,0.0000
2.6600,0.2785,0.0000
2.6610,0.2783,0.0000
2.6620,0.2780,0.0000
2.6630,0.2778,0.0000
2.6640,0.2775,0.0000
2.6650,0.2773,0.0000
2.6660,0.2770,0.0000
2.6670,0.2768,0.0000
2.6680,0.2766,0.0000
2.6690,0.2763,0.0000
2.6700,0.2761,0.0000
2.6710,0.2758,0.0000
2.6720,0.2756,0.0000
2.6730,0.2753,0.0000
2.6740,0.2751,0.0000
2.6750,0.2749,0.0000
2.6760,0.2746,0.0000
2.6770,0.2744,0.0000
2.6780,0.2742,0.0000
2.6790,0.2739,0.0000
2.6800,0.2736,0.0000
2.6810,0.2734,0.0000
2.6820,0.2731,0.0000
2.6830,0.2728,0.0000
2.6840,0.2725,0.0000
2.6850,0.2722,0.0000
2.6860,0.2719,0.0000
2.6870,0.2717,0.0000
2.6880,0.2714,0.0000
2.6890,0.2712,0.0000
2.6900,0.2710,0.0000
2.6910,0.2707,0.0000
2.6920,0.2705,0.0000
2.6930,0.2703,0.0000
2.6940,0.2700,0.0000
2.6950,0.2698,0.0000
2.6960,0.2696,0.0000
2.6970,0.2693,0.0000
2.6980,0.2691,0.0000
2.6990,0.2689,0.0000
2.7000,0.2686,0.0000
2.7010,0.2683,0.0000
2.7020,0.2680,0.0000
2.7030,0.2677,0.0000
2.7040,0.2674,0.0000
2.7050,0.2672,0.0000
2.7060,0.2669,0.0000
2.7070,0.2667,0.0000
2.7080,0.2664,0.0000
2.7090,0.2662,0.0000
2.7100,0.2660,0.0000
2.7110,0.2657,0.0000
2.7120,0.2655,0.0000
2.7130,0.2653,0.0000
2.7140,0.2650,0.0000
2.7150,0.2648,0.0000
2.7160,0.2646,0.0000
2.7170,0.2644,0.0000
2.7180,0.2641,0.0000
2.7190,0.2639,0.0000
2.7200,0.2637,0.0000
2.7210,0.2634,0.0000
2.7220,0.2631,0.0000
2.7230,0.2628,0.0000
2.7240,0.2625,0.0000
2.7250,0.2622,0.0000
2.7260,0.2620,0.0000
2.7270,0.2618,0.0000
2.7280,0.2615,0.0000
2.7290,0.2613,0.0000
2.7300,0.2611,0.0000
2.7310,0.2608,0.0000
2.7320,0.2605,0.0000
2.7330,0.2602,0.0000
2.7340,0.2599,0.0000
2.7350,0.2597,0.0000
2.7360,0.2594,0.0000
2.7370,0.2592,0.0000
2.7380,0.2590,0.0000
2.7390,0.2588,0.0000
2.7400,0.2585,0.0000
2.7410,0.2583,0.0000
2.7420,0.2580,0.0000
2.7430,0.2577,0.0000
2.7440,0.2574,0.0000
2.7450,0.2571,0.0000
2.7460,0.2569,0.0000
2.7470,0.2566,0.0000
2.7480,0.2563,0.0000
2.7490,0.2560,0.0000
2.7500,0.2558,0.0000
2.7510,0.2555,0.0000
2.7520,0.2553,0.0000
2.7530,0.2551,0.0000
2.7540,0.2549,0.0000
2.7550,0.2546,0.0000
2.7560,0.2544,0.0000
2.7570,0.2541,0.0000
2.7580,0.2538,0.0000
2.7590,0.2535,0.0000
2.7600,0.2533,0.0000
2.7610,0.2530,0.0000
2.7620,0.2527,0.0000
2.7630,0.2524,0.0000
2.7640,0.2521,0.0000
2.7650,0.2519,0.0000
2.7660,0.2517,0.0000
2.7670,0.2515,0.0000
2.7680,0.2512,0.0000
2.7690,0.2510,0.0000
2.7700,0.2508,0.0000
2.7710,0.2505,0.0000
2.7720,0.2503,0.0000
2.7730,0.2500,0.0000
2.7740,0.2497,0.0000
2.7750,0.2494,0.0000
2.7760,0.2492,0.0000
2.7770,0.2489,0.0000
2.7780,0.2486,0.0000
2.7790,0.2484,0.0000
2.7800,0.2481,0.0000
2.7810,0.2478,0.0000
2.7820,0.2476,0.0000
2.7830,0.2473,0.0000
2.7840,0.2470,0.0000
2.7850,0.2468,0.0000
2.7860,0.2465,0.0000
2.7870,0.2462,0.0000
2.7880,0.2459,0.0000
2.7890,0.2457,0.0000
2.7900,0.2454,0.0000
2.7910,0.2452,0.0000
2.7920,0.2450,0.0000
2.7930,0.2448,0.0000
2.7940,0.2446,0.0000
2.7950,0.2444,0.0000
2.7960,0.2441,0.0000
2.7970,0.2439,0.0000
2.7980,0.2436,0.0000
2.7990,0.2433,0.0000
2.8000,0.2430,0.0000
2.8010,0.2428,0.0000
2.8020,0.2425,0.0000
2.8030,0.2423,0.0000
2.8040,0.2420,0.0000
2.8050,0.2417,0.0000
2.8060,0.2415,0.0000
2.8070,0.2412,0.0000
2.8080,0.2409,0.0000
2.8090,0.2407,0.0000
2.8100,0.2404,0.0000
2.8110,0.2402,0.0000
2.8120,0.2400,0.0000
2.8130,0.2398,0.0000
2.8140,0.2396,0.0000
2.8150,0.2394,0.0000
2.8160,0.2392,0.0000
2.8170,0.2389,0.0000
2.8180,0.2386,0.0000
2.8190,0.2384,0.0000
2.8200,0.2381,0.0000
2.8210,0.2378,0.0000
2.8220,0.2376,0.0000
2.8230,0.2373,0.0000
2.8240,0.2371,0.0000
2.8250,0.2368,0.0000
2.8260,0.2366,0.0000
2.8270,0.2364,0.0000
2.8280,0.2362,0.0000
2.8290,0.2360,0.0000
2.8300,0.2358,0.0000
2.8310,0.2356,0.0000
2.8320,0.2353,0.0000
2.8330,0.2351,0.0000
2.8340,0.2348,0.0000
2.8350,0.2345,0.0000
2.8360,0.2343,0.0000
2.8370,0.2340,0.0000
2.8380,0.2338,0.0000
2.8390,0.2335,0.0000
2.8400,0.2333,0.0000
2.8410,0.2331,0.0000
2.8420,0.2329,0.0000
2.8430,0.2327,0.0000
2.8440,0.2325,0.0000
2.8450,0.2323,0.0000
2.8460,0.2320,0.0000
2.8470,0.2318,0.0000
2.8480,0.2315,0.0000
2.8490,0.2313,0.0000
2.8500,0.2310,0.0000
2.8510,0.2308,0.0000
2.8520,0.2306,0.0000
2.8530,0.2305,0.0000
2.8540,0.2303,0.0000
2.8550,0.2300,0.0000
2.8560,0.2298,0.0000
2.8570,0.2296,0.0000
2.8580,0.2293,0.0000
2.8590,0.2291,0.0000
2.8600,0.2288,0.0000
2.8610,0.2286,0.0000
2.8620,0.2284,0.0000
2.8630,0.2282,0.0000
2.8640,0.2280,0.0000
2.8650,0.2279,0.0000
2.8660,0.2277,0.0000
2.8670,0.2275,0.0000
2.8680,0.2273,0.0000
2.8690,0.2271,0.0000
2.8700,0.2269,0.0000
2.8710,0.2266,0.0000
2.8720,0.2264,0.0000
2.8730,0.2262,0.0000
2.8740,0.2259,0.0000
2.8750,0.2257,0.0000
2.8760,0.2255,0.0000
2.8770,0.2253,0.0000
2.8780,0.2251,0.0000
2.8790,0.2249,0.0000
2.8800,0.2247,0.0000
2.8810,0.2245,0.0000
2.8820,0.2244,0.0000
2.8830,0.2242,0.0000
2.8840,0.2240,0.0000
2.8850,0.2238,0.0000
2.8860,0.2235,0.0000
2.8870,0.2233,0.0000
2.8880,0.2231,0.0000
2.8890,0.2228,0.0000
2.8900,0.2226,0.0000
2.8910,0.2224,0.0000
2.8920,0.2222,0.0000
2.8930,0.2220,0.0000
2.8940,0.2218,0.0000
2.8950,0.2217,0.0000
2.8960,0.2215,0.0000
2.8970,0.2213,0.0000
2.8980,0.2211,0.0000
2.8990,0.2209,0.0000
2.9000,0.2207,0.0000
2.9010,0.2205,0.0000
2.9020,0.2203,0.0000
2.9030,0.2200,0.0000
2.9040,0.2198,0.0000
2.9050,0.2196,0.0000
2.9060,0.2194,0.0000
2.9070,0.2192,0.0000
2.9080,0.2190,0.0000
2.9090,0.2188,0.0000
2.9100,0.2186,0.0000
2.9110,0.2184,0.0000
2.9120,0.2183,0.0000
2.9130,0.2181,0.0000
2.9140,0.2179,0.0000
2.9150,0.2177,0.0000
2.9160,0.2175,0.0000
2.9170,0.2174,0.0000
2.9180,0.2172,0.0000
2.9190,0.2170,0.0000
2.9200,0.2168,0.0000
2.9210,0.2166,0.0000
2.9220,0.2164,0.0000
2.9230,0.2163,0.0000
2.9240,0.2161,0.0000
2.9250,0.2159,0.0000
2.9260,0.2157,0.0000
2.9270,0.2155,0.0000
2.9280,0.2154,0.0000
2.9290,0.2152,0.0000
2.9300,0.2150,0.0000
2.9310,0.2148,0.0000
2.9320,0.2146,0.0000
2.9330,0.2145,0.0000
2.9340,0.2143,0.0000
2.9350,0.2141,0.0000
2.9360,0.2139,0.0000
2.9370,0.2137,0.0000
2.9380,0.2134,0.0000
2.9390,0.2132,0.0000
2.9400,0.2130,0.0000
2.9410,0.2128,0.0000
2.9420,0.2126,0.0000
2.9430,0.2124,0.0000
2.9440,0.2123,0.0000
2.9450,0.2121,0.0000
2.9460,0.2119,0.0000
2.9470,0.2117,0.0000
2.9480,0.2116,0.0000
2.9490,0.2114,0.0000
2.9500,0.2112,0.0000
2.9510,0.2110,0.0000
2.9520,0.2109,0.0000
2.9530,0.2107,0.0000
2.9540,0.2105,0.0000
2.9550,0.2103,0.0000
2.9560,0.2102,0.0000
2.9570,0.2100,0.0000
2.9580,0.2098,0.0000
2.9590,0.2096,0.0000
2.9600,0.2095,0.0000
2.9610,0.2093,0.0000
2.9620,0.2091,0.0000
2.9630,0.2089,0.0000
2.9640,0.2088,0.0000
2.9650,0.2086,0.0000
2.9660,0.2085,0.0000
2.9670,0.2083,0.0000
2.9680,0.2082,0.0000
2.9690,0.2081,0.0000
2.9700,0.2080,0.0000
2.9710,0.2078,0.0000
2.9720,0.2076,0.0000
2.9730,0.2075,0.0000
2.9740,0.2073,0.0000
2.9750,0.2071,0.0000
2.9760,0.2069,0.0000
2.9770,0.2068,0.0000
2.9780,0.2066,0.0000
2.9790,0.2064,0.0000
2.9800,0.2062,0.0000
2.9810,0.2061,0.0000
2.9820,0.2059,0.0000
2.9830,0.2057,0.0000
2.9840,0.2056,0.0000
2.9850,0.2054,0.0000
2.9860,0.2052,0.0000
2.9870,0.2051,0.0000
2.9880,0.2049,0.0000
2.9890,0.2047,0.0000
2.9900,0.2046,0.0000
2.9910,0.2044,0.0000
2.9920,0.2042,0.0000
2.9930,0.2041,0.0000
2.9940,0.2039,0.0000
2.9950,0.2037,0.0000
2.9960,0.2036,0.0000
2.9970,0.2034,0.0000
2.9980,0.2032,0.0000
2.9990,0.2031,0.0000
3.0000,0.2029,0.0000
3.0010,0.2027,0.0000
3.0020,0.2026,0.0000
3.0030,0.2024,0.0000
3.0040,0.2022,0.0000
3.0050,0.2021,0.0000
3.0060,0.2019,0.0000
3.0070,0.2017,0.0000
3.0080,0.2015,0.0000
3.0090,0.2014,0.0000
3.0100,0.2012,0.0000
3.0110,0.2011,0.0000
3.0120,0.2010,0.0000
3.0130,0.2009,0.0000
3.0140,0.2007,0.0000
3.0150,0.2006,0.0000
3.0160,0.2005,0.0000
3.0170,0.2003,0.0000
3.0180,0.2001,0.0000
3.0190,0.1999,0.0000
3.0200,0.1998,0.0000
3.0210,0.1996,0.0000
3.0220,0.1995,0.0000
3.0230,0.1993,0.0000
3.0240,0.1991,0.0000
3.0250,0.1990,0.0000
3.0260,0.1988,0.0000
3.0270,0.1986,0.0000
3.0280,0.1985,0.0000
3.0290,0.1983,0.0000
3.0300,0.1981,0.0000
3.0310,0.1980,0.0000
3.0320,0.1978,0.0000
3.0330,0.1976,0.0000
3.0340,0.1975,0.0000
3.0350,0.1973,0.0000
3.0360,0.1972,0.0000
3.0370,0.1970,0.0000
3.0380,0.1968,0.0000
3.0390,0.1967,0.0000
3.0400,0.1965,0.0000
3.0410,0.1963,0.0000
3.0420,0.1962,0.0000
3.0430,0.1960,0.0000
3.0440,0.1958,0.0000
3.0450,0.1957,0.0000
3.0460,0.1955,0.0000
3.0470,0.1954,0.0000
3.0480,0.1952,0.0000
3.0490,0.1950,0.0000
3.0500,0.1949,0.0000
3.0510,0.1947,0.0000
3.0520,0.1946,0.0000
3.0530,0.1944,0.0000
3.0540,0.1942,0.0000
3.0550,0.1941,0.0000
3.0560,0.1939,0.0000
3.0570,0.1937,0.0000
3.0580,0.1936,0.0000
3.0590,0.1934,0.0000
3.0600,0.1933,0.0000
3.0610,0.1931,0.0000
3.0620,0.1929,0.0000
3.0630,0.1928,0.0000
3.0640,0.1926,0.0000
3.0650,0.1925,0.0000
3.0660,0.1923,0.0000
3.0670,0.1921,0.0000
3.0680,0.1920,0.0000
3.0690,0.1918,0.0000
3.0700,0.1917,0.0000
3.0710,0.1915,0.0000
3.0720,0.1913,0.0000
3.0730,0.1912,0.0000
3.0740,0.1910,0.0000
3.0750,0.1909,0.0000
3.0760,0.1907,0.0000
3.0770,0.1906,0.0000
3.0780,0.1904,0.0000
3.0790,0.1902,0.0000
3.0800,0.1901,0.0000
3.0810,0.1899,0.0000
3.0820,0.1898,0.0000
3.0830,0.1896,0.0000
3.0840,0.1894,0.0000
3.0850,0.1893,0.0000
3.0860,0.1891,0.0000
3.0870,0.1890,0.0000
3.0880,0.1888,0.0000
3.0890,0.1887,0.0000
3.0900,0.1885,0.0000
3.0910,0.1883,0.0000
3.0920,0.1882,0.0000
3.0930,0.1880,0.0000
3.0940,0.1879,0.0000
3.0950,0.1877,0.0000
3.0960,0.1876,0.0000
3.0970,0.1874,0.0000
3.0980,0.1872,0.0000
3.0990,0.1871,0.0000
3.1000,0.1869,0.0000
3.1010,0.1868,0.0000
3.1020,0.1866,0.0000
3.1030,0.1865,0.0000
3.1040,0.1863,0.0000
3.1050,0.1861,0.0000
3.1060,0.1860,0.0000
3.1070,0.1859,0.0000
3.1080,0.1858,0.0000
3.1090,0.1857,0.0000
3.1100,0.1856,0.0000
3.1110,0.1854,0.0000
3.1120,0.1853,0.0000
3.1130,0.1851,0.0000
3.1140,0.1849,0.0000
3.1150,0.1848,0.0000
3.1160,0.1846,0.0000
3.1170,0.1845,0.0000
3.1180,0.1843,0.0000
3.1190,0.1842,0.0000
3.1200,0.1840,0.0000
3.1210,0.1839,0.0000
3.1220,0.1837,0.0000
3.1230,0.1836,0.0000
3.1240,0.1834,0.0000
3.1250,0.1832,0.0000
3.1260,0.1831,0.0000
3.1270,0.1829,0.0000
3.1280,0.1828,0.0000
3.1290,0.1826,0.0000
3.1300,0.1825,0.0000
3.1310,0.1823,0.0000
3.1320,0.1822,0.0000
3.1330,0.1820,0.0000
3.1340,0.1819,0.0000
3.1350,0.1817,0.0000
3.1360,0.1815,0.0000
3.1370,0.1814,0.0000
3.1380,0.1813,0.0000
3.1390,0.1811,0.0000
3.1400,0.1809,0.0000
3.1410,0.1808,0.0000
3.1420,0.1806,0.0000
3.1430,0.1805,0.0000
3.1440,0.1803,0.0000
3.1450,0.1802,0.0000
3.1460,0.1800,0.0000
3.1470,0.1799,0.0000
3.1480,0.1797,0.0000
3.1490,0.1796,0.0000
3.1500,0.1794,0.0000
3.1510,0.1793,0.0000
3.1520,0.1791,0.0000
3.1530,0.1790,0.0000
3.1540,0.1788,0.0000
3.1550,0.1787,0.0000
3.1560,0.1785,0.0000
3.1570,0.1784,0.0000
3.1580,0.1782,0.0000
3.1590,0.1781,0.0000
3.1600,0.1779,0.0000
3.1610,0.1778,0.0000
3.1620,0.1776,0.0000
3.1630,0.1775,0.0000
3.1640,0.1773,0.0000
3.1650,0.1772,0.0000
3.1660,0.1770,0.0000
3.1670,0.1769,0.0000
3.1680,0.1767,0.0000
3.1690,0.1766,0.0000
3.1700,0.1764,0.0000
3.1710,0.1763,0.0000
3.1720,0.1761,0.0000
3.1730,0.1760,0.0000
3.1740,0.1758,0.0000
3.1750,0.1757,0.0000
3.1760,0.1755,0.0000
3.1770,0.1754,0.0000
3.1780,0.1752,0.0000
3.1790,0.1751,0.0000
3.1800,0.1749,0.0000
3.1810,0.1748,0.0000
3.1820,0.1746,0.0000
3.1830,0.1745,0.0000
3.1840,0.1743,0.0000
3.1850,0.1742,0.0000
3.1860,0.1740,0.0000
3.1870,0.1739,0.0000
3.1880,0.1737,0.0000
3.1890,0.1736,0.0000
3.1900,0.1734,0.0000
3.1910,0.1733,0.0000
3.1920,0.1731,0.0000
3.1930,0.1730,0.0000
3.1940,0.1728,0.0000
3.1950,0.1727,0.0000
3.1960,0.1725,0.0000
3.1970,0.1724,0.0000
3.1980,0.1723,0.0000
3.1990,0.1721,0.0000
3.2000,0.1720,0.0000
3.2010,0.1718,0.0000
3.2020,0.1717,0.0000
3.2030,0.1715,0.0000
3.2040,0.1714,0.0000
3.2050,0.1712,0.0000
3.2060,0.1711,0.0000
3.2070,0.1709,0.0000
3.2080,0.1708,0.0000
3.2090,0.1707,0.0000
3.2100,0.1705,0.0000
3.2110,0.1704,0.0000
3.2120,0.1702,0.0000
3.2130,0.1701,0.0000
3.2140,0.1699,0.0000
3.2150,0.1698,0.0000
3.2160,0.1696,0.0000
3.2170,0.1695,0.0000
3.2180,0.1693,0.0000
3.2190,0.1692,0.0000
3.2200,0.1690,0.0000
3.2210,0.1689,0.0000
3.2220,0.1688,0.0000
3.2230,0.1686,0.0000
3.2240,0.1685,0.0000
3.2250,0.1683,0.0000
3.2260,0.1682,0.0000
3.2270,0.1680,0.0000
3.2280,0.1679,0.0000
3.2290,0.1678,0.0000
3.2300,0.1676,0.0000
3.2310,0.1675,0.0000
3.2320,0.1673,0.0000
3.2330,0.1672,0.0000
3.2340,0.1670,0.0000
3.2350,0.1669,0.0000
3.2360,0.1667,0.0000
3.2370,0.1666,0.0000
3.2380,0.1665,0.0000
3.2390,0.1663,0.0000
3.2400,0.1662,0.0000
3.2410,0.1660,0.0000
3.2420,0.1659,0.0000
3.2430,0.1658,0.0000
3.2440,0.1656,0.0000
3.2450,0.1655,0.0000
3.2460,0.1653,0.0000
3.2470,0.1651,0.0000
3.2480,0.1649,0.0000
3.2490,0.1648,0.0000
3.2500,0.1646,0.0000
3.2510,0.1644,0.0000
3.2520,0.1643,0.0000
3.2530,0.1641,0.0000
3.2540,0.1640,0.0000
3.2550,0.1639,0.0000
3.2560,0.1637,0.0000
3.2570,0.1636,0.0000
3.2580,0.1635,0.0000
3.2590,0.1633,0.0000
3.2600,0.1632,0.0000
3.2610,0.1630,0.0000
3.2620,0.1629,0.0000
3.2630,0.1628,0.0000
3.2640,0.1626,0.0000
3.2650,0.1625,0.0000
3.2660,0.1623,0.0000
3.2670,0.1622,0.0000
3.2680,0.1620,0.0000
3.2690,0.1619,0.0000
3.2700,0.1618,0.0000
3.2710,0.1616,0.0000
3.2720,0.1615,0.0000
3.2730,0.1613,0.0000
3.2740,0.1612,0.0000
3.2750,0.1611,0.0000
3.2760,0.1609,0.0000
3.2770,0.1608,0.0000
3.2780,0.1606,0.0000
3.2790,0.1605,0.0000
3.2800,0.1604,0.0000
3.2810,0.1602,0.0000
3.2820,0.1601,0.0000
3.2830,0.1600,0.0000
3.2840,0.1598,0.0000
3.2850,0.1597,0.0000
3.2860,0.1595,0.0000
3.2870,0.1593,0.0000
3.2880,0.1592,0.0000
3.2890,0.1590,0.0000
3.2900,0.1588,0.0000
3.2910,0.1587,0.0000
3.2920,0.1585,0.0000
3.2930,0.1584,0.0000
3.2940,0.1583,0.0000
3.2950,0.1581,0.0000
3.2960,0.1580,0.0000
3.2970,0.1579,0.0000
3.2980,0.1577,0.0000
3.2990,0.1576,0.0000
3.3000,0.1575,0.0000
3.3010,0.1573,0.0000
3.3020,0.1572,0.0000
3.3030,0.1570,0.0000
3.3040,0.1569,0.0000
3.3050,0.1568,0.0000
3.3060,0.1566,0.0000
3.3070,0.1565,0.0000
3.3080,0.1564,0.0000
3.3090,0.1562,0.0000
3.3100,0.1561,0.0000
3.3110,0.1560,0.0000
3.3120,0.1558,0.0000
3.3130,0.1557,0.0000
3.3140,0.1556,0.0000
3.3150,0.1554,0.0000
3.3160,0.1552,0.0000
3.3170,0.1551,0.0000
3.3180,0.1549,0.0000
3.3190,0.1547,0.0000
3.3200,0.1546,0.0000
3.3210,0.1544,0.0000
3.3220,0.1543,0.0000
3.3230,0.1542,0.0000
3.3240,0.1540,0.0000
3.3250,0.1539,0.0000
3.3260,0.1538,0.0000
3.3270,0.1536,0.0000
3.3280,0.1535,0.0000
3.3290,0.1534,0.0000
3.3300,0.1532,0.0000
3.3310,0.1531,0.0000
3.3320,0.1530,0.0000
3.3330,0.1528,0.0000
3.3340,0.1527,0.0000
3.3350,0.1526,0.0000
3.3360,0.1524,0.0000
3.3370,0.1523,0.0000
3.3380,0.1522,0.0000
3.3390,0.1520,0.0000
3.3400,0.1519,0.0000
3.3410,0.1517,0.0000
3.3420,0.1516,0.0000
3.3430,0.1514,0.0000
3.3440,0.1512,0.0000
3.3450,0.1511,0.0000
3.3460,0.1509,0.0000
3.3470,0.1508,0.0000
3.3480,0.1507,0.0000
3.3490,0.1505,0.0000
3.3500,0.1504,0.0000
3.3510,0.1503,0.0000
3.3520,0.1502,0.0000
3.3530,0.1500,0.0000
3.3540,0.1499,0.0000
3.3550,0.1497,0.0000
3.3560,0.1496,0.0000
3.3570,0.1494,0.0000
3.3580,0.1493,0.0000
3.3590,0.1491,0.0000
3.3600,0.1489,0.0000
3.3610,0.1488,0.0000
3.3620,0.1487,0.0000
3.3630,0.1485,0.0000
3.3640,0.1484,0.0000
3.3650,0.1483,0.0000
3.3660,0.1481,0.0000
3.3670,0.1480,0.0000
3.3680,0.1479,0.0000
3.3690,0.1478,0.0000
3.3700,0.1476,0.0000
3.3710,0.1475,0.0000
3.3720,0.1474,0.0000
3.3730,0.1472,0.0000
3.3740,0.1471,0.0000
3.3750,0.1470,0.0000
3.3760,0.1468,0.0000
3.3770,0.1467,0.0000
3.3780,0.1465,0.0000
3.3790,0.1463,0.0000
3.3800,0.1462,0.0000
3.3810,0.1460,0.0000
3.3820,0.1459,0.0000
3.3830,0.1458,0.0000
3.3840,0.1457,0.0000
3.3850,0.1455,0.0000
3.3860,0.1454,0.0000
3.3870,0.1453,0.0000
3.3880,0.1452,0.0000
3.3890,0.1450,0.0000
3.3900,0.1449,0.0000
3.3910,0.1448,0.0000
3.3920,0.1446,0.0000
3.3930,0.1445,0.0000
3.3940,0.1444,0.0000
3.3950,0.1443,0.0000
3.3960,0.1441,0.0000
3.3970,0.1439,0.0000
3.3980,0.1438,0.0000
3.3990,0.1436,0.0000
3.4000,0.1435,0.0000
3.4010,0.1433,0.0000
3.4020,0.1432,0.0000
3.4030,0.1431,0.0000
3.4040,0.1429,0.0000
3.4050,0.1428,0.0000
3.4060,0.1427,0.0000
3.4070,0.1426,0.0000
3.4080,0.1425,0.0000
3.4090,0.1423,0.0000
3.4100,0.1422,0.0000
3.4110,0.1421,0.0000
3.4120,0.1419,0.0000
3.4130,0.1418,0.0000
3.4140,0.1417,0.0000
3.4150,0.1416,0.0000
3.4160,0.1414,0.0000
3.4170,0.1413,0.0000
3.4180,0.1411,0.0000
3.4190,0.1409,0.0000
3.4200,0.1408,0.0000
3.4210,0.1407,0.0000
3.4220,0.1405,0.0000
3.4230,0.1404,0.0000
3.4240,0.1403,0.0000
3.4250,0.1402,0.0000
3.4260,0.1400,0.0000
3.4270,0.1399,0.0000
3.4280,0.1398,0.0000
3.4290,0.1397,0.0000
3.4300,0.1395,0.0000
3.4310,0.1394,0.0000
3.4320,0.1393,0.0000
3.4330,0.1392,0.0000
3.4340,0.1390,0.0000
3.4350,0.1389,0.0000
3.4360,0.1388,0.0000
3.4370,0.1387,0.0000
3.4380,0.1385,0.0000
3.4390,0.1384,0.0000
3.4400,0.1383,0.0000
3.4410,0.1382,0.0000
3.4420,0.1380,0.0000
3.4430,0.1378,0.0000
3.4440,0.1377,0.0000
3.4450,0.1375,0.0000
3.4460,0.1374,0.0000
3.4470,0.1373,0.0000
3.4480,0.1372,0.0000
3.4490,0.1370,0.0000
3.4500,0.1369,0.0000
3.4510,0.1368,0.0000
3.4520,0.1367,0.0000
3.4530,0.1365,0.0000
3.4540,0.1364,0.0000
3.4550,0.1363,0.0000
3.4560,0.1362,0.0000
3.4570,0.1361,0.0000
3.4580,0.1359,0.0000
3.4590,0.1358,0.0000
3.4600,0.1357,0.0000
3.4610,0.1356,0.0000
3.4620,0.1354,0.0000
3.4630,0.1352,0.0000
3.4640,0.1351,0.0000
3.4650,0.1349,0.0000
3.4660,0.1348,0.0000
3.4670,0.1347,0.0000
3.4680,0.1346,0.0000
3.4690,0.1345,0.0000
3.4700,0.1343,0.0000
3.4710,0.1342,0.0000
3.4720,0.1341,0.0000
3.4730,0.1340,0.0000
3.4740,0.1338,0.0000
3.4750,0.1337,0.0000
3.4760,0.1336,0.0000
3.4770,0.1335,0.0000
3.4780,0.1334,0.0000
3.4790,0.1333,0.0000
3.4800,0.1331,0.0000
3.4810,0.1330,0.0000
3.4820,0.1328,0.0000
3.4830,0.1327,0.0000
3.4840,0.1325,0.0000
3.4850,0.1324,0.0000
3.4860,0.1323,0.0000
3.4870,0.1321,0.0000
3.4880,0.1320,0.0000
3.4890,0.1319,0.0000
3.4900,0.1318,0.0000
3.4910,0.1317,0.0000
3.4920,0.1316,0.0000
3.4930,0.1314,0.0000
3.4940,0.1313,0.0000
3.4950,0.1312,0.0000
3.4960,0.1311,0.0000
3.4970,0.1310,0.0000
3.4980,0.1309,0.0000
3.4990,0.1307,0.0000
3.5000,0.1306,0.0000
3.5010,0.1305,0.0000
3.5020,0.1303,0.0000
3.5030,0.1302,0.0000
3.5040,0.1300,0.0000
3.5050,0.1299,0.0000
3.5060,0.1297,0.0000
3.5070,0.1296,0.0000
3.5080,0.1295,0.0000
3.5090,0.1294,0.0000
3.5100,0.1293,0.0000
3.5110,0.1292,0.0000
3.5120,0.1291,0.0000
3.5130,0.1289,0.0000
3.5140,0.1288,0.0000
3.5150,0.1287,0.0000
3.5160,0.1286,0.0000
3.5170,0.1285,0.0000
3.5180,0.1284,0.0000
3.5190,0.1282,0.0000
3.5200,0.1281,0.0000
3.5210,0.1280,0.0000
3.5220,0.1278,0.0000
3.5230,0.1277,0.0000
3.5240,0.1275,0.0000
3.5250,0.1274,0.0000
3.5260,0.1273,0.0000
3.5270,0.1272,0.0000
3.5280,0.1270,0.0000
3.5290,0.1269,0.0000
3.5300,0.1268,0.0000
3.5310,0.1267,0.0000
3.5320,0.1266,0.0000
3.5330,0.1265,0.0000
3.5340,0.1264,0.0000
3.5350,0.1262,0.0000
3.5360,0.1261,0.0000
3.5370,0.1260,0.0000
3.5380,0.1259,0.0000
3.5390,0.1258,0.0000
3.5400,0.1257,0.0000
3.5410,0.1255,0.0000
3.5420,0.1254,0.0000
3.5430,0.1252,0.0000
3.5440,0.1251,0.0000
3.5450,0.1250,0.0000
3.5460,0.1248,0.0000
3.5470,0.1247,0.0000
3.5480,0.1246,0.0000
3.5490,0.1245,0.0000
3.5500,0.1244,0.0000
3.5510,0.1243,0.0000
3.5520,0.1242,0.0000
3.5530,0.1240,0.0000
3.5540,0.1239,0.0000
3.5550,0.1238,0.0000
3.5560,0.1237,0.0000
3.5570,0.1236,0.0000
3.5580,0.1235,0.0000
3.5590,0.1234,0.0000
3.5600,0.1233,0.0000
3.5610,0.1231,0.0000
3.5620,0.1230,0.0000
3.5630,0.1228,0.0000
3.5640,0.1227,0.0000
3.5650,0.1226,0.0000
3.5660,0.1224,0.0000
3.5670,0.1223,0.0000
3.5680,0.1222,0.0000
3.5690,0.1221,0.0000
3.5700,0.1220,0.0000
3.5710,0.1219,0.0000
3.5720,0.1218,0.0000
3.5730,0.1217,0.0000
3.5740,0.1216,0.0000
3.5750,0.1214,0.0000
3.5760,0.1213,0.0000
3.5770,0.1212,0.0000
3.5780,0.1210,0.0000
3.5790,0.1209,0.0000
3.5800,0.1208,0.0000
3.5810,0.1206,0.0000
3.5820,0.1205,0.0000
3.5830,0.1204,0.0000
3.5840,0.1203,0.0000
3.5850,0.1202,0.0000
3.5860,0.1201,0.0000
3.5870,0.1200,0.0000
3.5880,0.1199,0.0000
3.5890,0.1198,0.0000
3.5900,0.1196,0.0000
3.5910,0.1195,0.0000
3.5920,0.1194,0.0000
3.5930,0.1193,0.0000
3.5940,0.1192,0.0000
3.5950,0.1191,0.0000
3.5960,0.1190,0.0000
3.5970,0.1188,0.0000
3.5980,0.1187,0.0000
3.5990,0.1185,0.0000
3.6000,0.1184,0.0000
3.6010,0.1183,0.0000
3.6020,0.1182,0.0000
3.6030,0.1181,0.0000
3.6040,0.1180,0.0000
3.6050,0.1179,0.0000
3.6060,0.1177,0.0000
3.6070,0.1177,0.0000
3.6080,0.1175,0.0000
3.6090,0.1174,0.0000
3.6100,0.1173,0.0000
3.6110,0.1172,0.0000
3.6120,0.1170,0.0000
3.6130,0.1169,0.0000
3.6140,0.1168,0.0000
3.6150,0.1166,0.0000
3.6160,0.1165,0.0000
3.6170,0.1164,0.0000
3.6180,0.1163,0.0000
3.6190,0.1162,0.0000
3.6200,0.1161,0.0000
3.6210,0.1160,0.0000
3.6220,0.1159,0.0000
3.6230,0.1158,0.0000
3.6240,0.1157,0.0000
3.6250,0.1156,0.0000
3.6260,0.1154,0.0000
3.6270,0.1153,0.0000
3.6280,0.1152,0.0000
3.6290,0.1150,0.0000
3.6300,0.1149,0.0000
3.6310,0.1148,0.0000
3.6320,0.1147,0.0000
3.6330,0.1146,0.0000
3.6340,0.1145,0.0000
3.6350,0.1144,0.0000
3.6360,0.1143,0.0000
3.6370,0.1142,0.0000
3.6380,0.1141,0.0000
3.6390,0.1139,0.0000
3.6400,0.1138,0.0000
3.6410,0.1137,0.0000
3.6420,0.1136,0.0000
3.6430,0.1134,0.0000
3.6440,0.1133,0.0000
3.6450,0.1132,0.0000
3.6460,0.1131,0.0000
3.6470,0.1129,0.0000
3.6480,0.1129,0.0000
3.6490,0.1128,0.0000
3.6500,0.1126,0.0000
3.6510,0.1125,0.0000
3.6520,0.1124,0.0000
3.6530,0.1123,0.0000
3.6540,0.1122,0.0000
3.6550,0.1121,0.0000
3.6560,0.1120,0.0000
3.6570,0.1119,0.0000
3.6580,0.1118,0.0000
3.6590,0.1117,0.0000
3.6600,0.1116,0.0000
3.6610,0.1115,0.0000
3.6620,0.1113,0.0000
3.6630,0.1112,0.0000
3.6640,0.1111,0.0000
3.6650,0.1110,0.0000
3.6660,0.1108,0.0000
3.6670,0.1107,0.0000
3.6680,0.1106,0.0000
3.6690,0.1105,0.0000
3.6700,0.1104,0.0000
3.6710,0.1103,0.0000
3.6720,0.1102,0.0000
3.6730,0.1101,0.0000
3.6740,0.1100,0.0000
3.6750,0.1099,0.0000
3.6760,0.1098,0.0000
3.6770,0.1097,0.0000
3.6780,0.1095,0.0000
3.6790,0.1094,0.0000
3.6800,0.1093,0.0000
3.6810,0.1092,0.0000
3.6820,0.1090,0.0000
3.6830,0.1089,0.0000
3.6840,0.1089,0.0000
3.6850,0.1088,0.0000
3.6860,0.1086,0.0000
3.6870,0.1085,0.0000
3.6880,0.1085,0.0000
3.6890,0.1084,0.0000
3.6900,0.1082,0.0000
3.6910,0.1081,0.0000
3.6920,0.1080,0.0000
3.6930,0.1079,0.0000
3.6940,0.1077,0.0000
3.6950,0.1076,0.0000
3.6960,0.1075,0.0000
3.6970,0.1074,0.0000
3.6980,0.1073,0.0000
3.6990,0.1072,0.0000
3.7000,0.1071,0.0000
3.7010,0.1070,0.0000
3.7020,0.1069,0.0000
3.7030,0.1068,0.0000
3.7040,0.1067,0.0000
3.7050,0.1066,0.0000
3.7060,0.1065,0.0000
3.7070,0.1063,0.0000
3.7080,0.1062,0.0000
3.7090,0.1061,0.0000
3.7100,0.1060,0.0000
3.7110,0.1059,0.0000
3.7120,0.1058,0.0000
3.7130,0.1057,0.0000
3.7140,0.1056,0.0000
3.7150,0.1055,0.0000
3.7160,0.1054,0.0000
3.7170,0.1053,0.0000
3.7180,0.1052,0.0000
3.7190,0.1051,0.0000
3.7200,0.1050,0.0000
3.7210,0.1048,0.0000
3.7220,0.1047,0.0000
3.7230,0.1046,0.0000
3.7240,0.1045,0.0000
3.7250,0.1044,0.0000
3.7260,0.1042,0.0000
3.7270,0.1041,0.0000
3.7280,0.1040,0.0000
3.7290,0.1040,0.0000
3.7300,0.1038,0.0000
3.7310,0.1037,0.0000
3.7320,0.1037,0.0000
3.7330,0.1036,0.0000
3.7340,0.1035,0.0000
3.7350,0.1033,0.0000
3.7360,0.1032,0.0000
3.7370,0.1031,0.0000
3.7380,0.1030,0.0000
3.7390,0.1029,0.0000
3.7400,0.1028,0.0000
3.7410,0.1026,0.0000
3.7420,0.1025,0.0000
3.7430,0.1024,0.0000
3.7440,0.1023,0.0000
3.7450,0.1023,0.0000
3.7460,0.1022,0.0000
3.7470,0.1021,0.0000
3.7480,0.1020,0.0000
3.7490,0.1019,0.0000
3.7500,0.1018,0.0000
3.7510,0.1016,0.0000
3.7520,0.1015,0.0000
3.7530,0.1014,0.0000
3.7540,0.1013,0.0000
3.7550,0.1012,0.0000
3.7560,0.1011,0.0000
3.7570,0.1010,0.0000
3.7580,0.1009,0.0000
3.7590,0.1008,0.0000
3.7600,0.1007,0.0000
3.7610,0.1006,0.0000
3.7620,0.1005,0.0000
3.7630,0.1004,0.0000
3.7640,0.1003,0.0000
3.7650,0.1002,0.0000
3.7660,0.1001,0.0000
3.7670,0.1000,0.0000
3.7680,0.0998,0.0000
3.7690,0.0997,0.0000
3.7700,0.0996,0.0000
3.7710,0.0995,0.0000
3.7720,0.0994,0.0000
3.7730,0.0993,0.0000
3.7740,0.0992,0.0000
3.7750,0.0991,0.0000
3.7760,0.0990,0.0000
3.7770,0.0989,0.0000
3.7780,0.0988,0.0000
3.7790,0.0987,0.0000
3.7800,0.0986,0.0000
3.7810,0.0985,0.0000
3.7820,0.0984,0.0000
3.7830,0.0983,0.0000
3.7840,0.0982,0.0000
3.7850,0.0980,0.0000
3.7860,0.0979,0.0000
3.7870,0.0979,0.0000
3.7880,0.0978,0.0000
3.7890,0.0977,0.0000
3.7900,0.0976,0.0000
3.7910,0.0975,0.0000
3.7920,0.0974,0.0000
3.7930,0.0973,0.0000
3.7940,0.0972,0.0000
3.7950,0.0971,0.0000
3.7960,0.0970,0.0000
3.7970,0.0969,0.0000
3.7980,0.0968,0.0000
3.7990,0.0967,0.0000
3.8000,0.0966,0.0000
3.8010,0.0965,0.0000
3.8020,0.0964,0.0000
3.8030,0.0963,0.0000
3.8040,0.0962,0.0000
3.8050,0.0961,0.0000
3.8060,0.0959,0.0000
3.8070,0.0959,0.0000
3.8080,0.0958,0.0000
3.8090,0.0957,0.0000
3.8100,0.0956,0.0000
3.8110,0.0955,0.0000
3.8120,0.0954,0.0000
3.8130,0.0953,0.0000
3.8140,0.0952,0.0000
3.8150,0.0951,0.0000
3.8160,0.0950,0.0000
3.8170,0.0949,0.0000
3.8180,0.0948,0.0000
3.8190,0.0947,0.0000
3.8200,0.0945,0.0000
3.8210,0.0944,0.0000
3.8220,0.0944,0.0000
3.8230,0.0943,0.0000
3.8240,0.0942,0.0000
3.8250,0.0941,0.0000
3.8260,0.0940,0.0000
3.8270,0.0939,0.0000
3.8280,0.0938,0.0000
3.8290,0.0937,0.0000
3.8300,0.0936,0.0000
3.8310,0.0935,0.0000
3.8320,0.0934,0.0000
3.8330,0.0933,0.0000
3.8340,0.0932,0.0000
3.8350,0.0931,0.0000
3.8360,0.0930,0.0000
3.8370,0.0929,0.0000
3.8380,0.0928,0.0000
3.8390,0.0927,0.0000
3.8400,0.0926,0.0000
3.8410,0.0925,0.0000
3.8420,0.0924,0.0000
3.8430,0.0923,0.0000
3.8440,0.0922,0.0000
3.8450,0.0921,0.0000
3.8460,0.0920,0.0000
3.8470,0.0919,0.0000
3.8480,0.0918,0.0000
3.8490,0.0917,0.0000
3.8500,0.0916,0.0000
3.8510,0.0915,0.0000
3.8520,0.0914,0.0000
3.8530,0.0913,0.0000
3.8540,0.0912,0.0000
3.8550,0.0911,0.0000
3.8560,0.0910,0.0000
3.8570,0.0910,0.0000
3.8580,0.0909,0.0000
3.8590,0.0908,0.0000
3.8600,0.0907,0.0000
3.8610,0.0906,0.0000
3.8620,0.0905,0.0000
3.8630,0.0904,0.0000
3.8640,0.0902,0.0000
3.8650,0.0901,0.0000
3.8660,0.0900,0.0000
3.8670,0.0900,0.0000
3.8680,0.0899,0.0000
3.8690,0.0898,0.0000
3.8700,0.0897,0.0000
3.8710,0.0896,0.0000
3.8720,0.0895,0.0000
3.8730,0.0894,0.0000
3.8740,0.0893,0.0000
3.8750,0.0892,0.0000
3.8760,0.0891,0.0000
3.8770,0.0890,0.0000
3.8780,0.0889,0.0000
3.8790,0.0888,0.0000
3.8800,0.0887,0.0000
3.8810,0.0886,0.0000
3.8820,0.0885,0.0000
3.8830,0.0884,0.0000
3.8840,0.0883,0.0000
3.8850,0.0882,0.0000
3.8860,0.0882,0.0000
3.8870,0.0881,0.0000
3.8880,0.0880,0.0000
3.8890,0.0879,0.0000
3.8900,0.0878,0.0000
3.8910,0.0877,0.0000
3.8920,0.0876,0.0000
3.8930,0.0875,0.0000
3.8940,0.0874,0.0000
3.8950,0.0873,0.0000
3.8960,0.0872,0.0000
3.8970,0.0871,0.0000
3.8980,0.0870,0.0000
3.8990,0.0869,0.0000
3.9000,0.0868,0.0000
3.9010,0.0868,0.0000
3.9020,0.0867,0.0000
3.9030,0.0866,0.0000
3.9040,0.0865,0.0000
3.9050,0.0864,0.0000
3.9060,0.0863,0.0000
3.9070,0.0862,0.0000
3.9080,0.0861,0.0000
3.9090,0.0860,0.0000
3.9100,0.0859,0.0000
3.9110,0.0858,0.0000
3.9120,0.0857,0.0000
3.9130,0.0856,0.0000
3.9140,0.0855,0.0000
3.9150,0.0854,0.0000
3.9160,0.0854,0.0000
3.9170,0.0853,0.0000
3.9180,0.0852,0.0000
3.9190,0.0851,0.0000
3.9200,0.0850,0.0000
3.9210,0.0849,0.0000
3.9220,0.0848,0.0000
3.9230,0.0847,0.0000
3.9240,0.0846,0.0000
3.9250,0.0845,0.0000
3.9260,0.0844,0.0000
3.9270,0.0843,0.0000
3.9280,0.0842,0.0000
3.9290,0.0841,0.0000
3.9300,0.0841,0.0000
3.9310,0.0840,0.0000
3.9320,0.0839,0.0000
3.9330,0.0838,0.0000
3.9340,0.0837,0.0000
3.9350,0.0836,0.0000
3.9360,0.0835,0.0000
3.9370,0.0834,0.0000
3.9380,0.0833,0.0000
3.9390,0.0832,0.0000
3.9400,0.0831,0.0000
3.9410,0.0830,0.0000
3.9420,0.0829,0.0000
3.9430,0.0829,0.0000
3.9440,0.0828,0.0000
3.9450,0.0827,0.0000
3.9460,0.0826,0.0000
3.9470,0.0825,0.0000
3.9480,0.0825,0.0000
3.9490,0.0824,0.0000
3.9500,0.0823,0.0000
3.9510,0.0822,0.0000
3.9520,0.0821,0.0000
3.9530,0.0820,0.0000
3.9540,0.0819,0.0000
3.9550,0.0818,0.0000
3.9560,0.0817,0.0000
3.9570,0.0816,0.0000
3.9580,0.0815,0.0000
3.9590,0.0814,0.0000
3.9600,0.0813,0.0000
3.9610,0.0813,0.0000
3.9620,0.0812,0.0000
3.9630,0.0811,0.0000
3.9640,0.0810,0.0000
3.9650,0.0809,0.0000
3.9660,0.0808,0.0000
3.9670,0.0807,0.0000
3.9680,0.0806,0.0000
3.9690,0.0805,0.0000
3.9700,0.0804,0.0000
3.9710,0.0803,0.0000
3.9720,0.0803,0.0000
3.9730,0.0802,0.0000
3.9740,0.0801,0.0000
3.9750,0.0800,0.0000
3.9760,0.0799,0.0000
3.9770,0.0799,0.0000
3.9780,0.0798,0.0000
3.9790,0.0797,0.0000
3.9800,0.0796,0.0000
3.9810,0.0795,0.0000
3.9820,0.0794,0.0000
3.9830,0.0793,0.0000
3.9840,0.0792,0.0000
3.9850,0.0791,0.0000
3.9860,0.0790,0.0000
3.9870,0.0789,0.0000
3.9880,0.0789,0.0000
3.9890,0.0788,0.0000
3.9900,0.0787,0.0000
3.9910,0.0786,0.0000
3.9920,0.0785,0.0000
3.9930,0.0785,0.0000
3.9940,0.0784,0.0000
3.9950,0.0783,0.0000
3.9960,0.0782,0.0000
3.9970,0.0781,0.0000
3.9980,0.0780,0.0000
3.9990,0.0779,0.0000
4.0000,0.0778,0.0000
4.0010,0.0777,0.0000
4.0020,0.0776,0.0000
4.0030,0.0775,0.0000
4.0040,0.0775,0.0000
4.0050,0.0774,0.0000
4.0060,0.0773,0.0000
4.0070,0.0772,0.0000
4.0080,0.0772,0.0000
4.0090,0.0771,0.0000
4.0100,0.0770,0.0000
4.0110,0.0769,0.0000
4.0120,0.0768,0.0000
4.0130,0.0767,0.0000
4.0140,0.0766,0.0000
4.0150,0.0765,0.0000
4.0160,0.0764,0.0000
4.0170,0.0763,0.0000
4.0180,0.0763,0.0000
4.0190,0.0762,0.0000
4.0200,0.0761,0.0000
4.0210,0.0760,0.0000
4.0220,0.0759,0.0000
4.0230,0.0759,0.0000
4.0240,0.0758,0.0000
4.0250,0.0757,0.0000
4.0260,0.0756,0.0000
4.0270,0.0755,0.0000
4.0280,0.0754,0.0000
4.0290,0.0753,0.0000
4.0300,0.0752,0.0000
4.0310,0.0751,0.0000
4.0320,0.0751,0.0000
4.0330,0.0750,0.0000
4.0340,0.0749,0.0000
4.0350,0.0748,0.0000
4.0360,0.0747,0.0000
4.0370,0.0747,0.0000
4.0380,0.0746,0.0000
4.0390,0.0745,0.0000
4.0400,0.0744,0.0000
4.0410,0.0743,0.0000
4.0420,0.0742,0.0000
4.0430,0.0742,0.0000
4.0440,0.0741,0.0000
4.0450,0.0740,0.0000
4.0460,0.0739,0.0000
4.0470,0.0738,0.0000
4.0480,0.0737,0.0000
4.0490,0.0737,0.0000
4.0500,0.0736,0.0000
4.0510,0.0735,0.0000
4.0520,0.0734,0.0000
4.0530,0.0733,0.0000
4.0540,0.0733,0.0000
4.0550,0.0732,0.0000
4.0560,0.0731,0.0000
4.0570,0.0730,0.0000
4.0580,0.0729,0.0000
4.0590,0.0728,0.0000
4.0600,0.0727,0.0000
4.0610,0.0726,0.0000
4.0620,0.0725,0.0000
4.0630,0.0725,0.0000
4.0640,0.0724,0.0000
4.0650,0.0723,0.0000
4.0660,0.0723,0.0000
4.0670,0.0722,0.0000
4.0680,0.0721,0.0000
4.0690,0.0720,0.0000
4.0700,0.0719,0.0000
4.0710,0.0719,0.0000
4.0720,0.0718,0.0000
4.0730,0.0717,0.0000
4.0740,0.0716,0.0000
4.0750,0.0715,0.0000
4.0760,0.0714,0.0000
4.0770,0.0713,0.0000
4.0780,0.0712,0.0000
4.0790,0.0712,0.0000
4.0800,0.0711,0.0000
4.0810,0.0710,0.0000
4.0820,0.0710,0.0000
4.0830,0.0709,0.0000
4.0840,0.0708,0.0000
4.0850,0.0707,0.0000
4.0860,0.0706,0.0000
4.0870,0.0705,0.0000
4.0880,0.0704,0.0000
4.0890,0.0703,0.0000
4.0900,0.0703,0.0000
4.0910,0.0702,0.0000
4.0920,0.0701,0.0000
4.0930,0.0700,0.0000
4.0940,0.0700,0.0000
4.0950,0.0699,0.0000
4.0960,0.0698,0.0000
4.0970,0.0697,0.0000
4.0980,0.0697,0.0000
4.0990,0.0696,0.0000
4.1000,0.0695,0.0000
4.1010,0.0694,0.0000
4.1020,0.0693,0.0000
4.1030,0.0692,0.0000
4.1040,0.0692,0.0000
4.1050,0.0691,0.0000
4.1060,0.0690,0.0000
4.1070,0.0689,0.0000
4.1080,0.0688,0.0000
4.1090,0.0688,0.0000
4.1100,0.0687,0.0000
4.1110,0.0686,0.0000
4.1120,0.0685,0.0000
4.1130,0.0685,0.0000
4.1140,0.0684,0.0000
4.1150,0.0683,0.0000
4.1160,0.0682,0.0000
4.1170,0.0681,0.0000
4.1180,0.0680,0.0000
4.1190,0.0680,0.0000
4.1200,0.0679,0.0000
4.1210,0.0678,0.0000
4.1220,0.0677,0.0000
4.1230,0.0676,0.0000
4.1240,0.0676,0.0000
4.1250,0.0675,0.0000
4.1260,0.0674,0.0000
4.1270,0.0674,0.0000
4.1280,0.0673,0.0000
4.1290,0.0672,0.0000
4.1300,0.0671,0.0000
4.1310,0.0671,0.0000
4.1320,0.0670,0.0000
4.1330,0.0669,0.0000
4.1340,0.0668,0.0000
4.1350,0.0667,0.0000
4.1360,0.0666,0.0000
4.1370,0.0665,0.0000
4.1380,0.0665,0.0000
4.1390,0.0664,0.0000
4.1400,0.0663,0.0000
4.1410,0.0663,0.0000
4.1420,0.0662,0.0000
4.1430,0.0661,0.0000
4.1440,0.0660,0.0000
4.1450,0.0660,0.0000
4.1460,0.0659,0.0000
4.1470,0.0658,0.0000
4.1480,0.0657,0.0000
4.1490,0.0656,0.0000
4.1500,0.0655,0.0000
4.1510,0.0654,0.0000
4.1520,0.0654,0.0000
4.1530,0.0653,0.0000
4.1540,0.0652,0.0000
4.1550,0.0652,0.0000
4.1560,0.0651,0.0000
4.1570,0.0650,0.0000
4.1580,0.0649,0.0000
4.1590,0.0649,0.0000
4.1600,0.0648,0.0000
4.1610,0.0647,0.0000
4.1620,0.0647,0.0000
4.1630,0.0646,0.0000
4.1640,0.0645,0.0000
4.1650,0.0645,0.0000
4.1660,0.0644,0.0000
4.1670,0.0643,0.0000
4.1680,0.0642,0.0000
4.1690,0.0641,0.0000
4.1700,0.0640,0.0000
4.1710,0.0640,0.0000
4.1720,0.0639,0.0000
4.1730,0.0638,0.0000
4.1740,0.0637,0.0000
4.1750,0.0637,0.0000
4.1760,0.0636,0.0000
4.1770,0.0635,0.0000
4.1780,0.0635,0.0000
4.1790,0.0634,0.0000
4.1800,0.0633,0.0000
4.1810,0.0632,0.0000
4.1820,0.0632,0.0000
4.1830,0.0631,0.0000
4.1840,0.0630,0.0000
4.1850,0.0630,0.0000
4.1860,0.0629,0.0000
4.1870,0.0628,0.0000
4.1880,0.0628,0.0000
4.1890,0.0627,0.0000
4.1900,0.0626,0.0000
4.1910,0.0625,0.0000
4.1920,0.0624,0.0000
4.1930,0.0624,0.0000
4.1940,0.0623,0.0000
4.1950,0.0622,0.0000
4.1960,0.0621,0.0000
4.1970,0.0620,0.0000
4.1980,0.0620,0.0000
4.1990,0.0619,0.0000
4.2000,0.0618,0.0000
4.2010,0.0618,0.0000
4.2020,0.0617,0.0000
4.2030,0.0616,0.0000
4.2040,0.0616,0.0000
4.2050,0.0615,0.0000
4.2060,0.0614,0.0000
4.2070,0.0614,0.0000
4.2080,0.0613,0.0000
4.2090,0.0612,0.0000
4.2100,0.0611,0.0000
4.2110,0.0611,0.0000
4.2120,0.0610,0.0000
4.2130,0.0609,0.0000
4.2140,0.0609,0.0000
4.2150,0.0608,0.0000
4.2160,0.0607,0.0000
4.2170,0.0607,0.0000
4.2180,0.0606,0.0000
4.2190,0.0605,0.0000
4.2200,0.0605,0.0000
4.2210,0.0604,0.0000
4.2220,0.0603,0.0000
4.2230,0.0603,0.0000
4.2240,0.0602,0.0000
4.2250,0.0601,0.0000
4.2260,0.0600,0.0000
4.2270,0.0600,0.0000
4.2280,0.0599,0.0000
4.2290,0.0598,0.0000
4.2300,0.0597,0.0000
4.2310,0.0596,0.0000
4.2320,0.0596,0.0000
4.2330,0.0595,0.0000
4.2340,0.0594,0.0000
4.2350,0.0594,0.0000
4.2360,0.0593,0.0000
4.2370,0.0592,0.0000
4.2380,0.0592,0.0000
4.2390,0.0591,0.0000
4.2400,0.0590,0.0000
4.2410,0.0590,0.0000
4.2420,0.0589,0.0000
4.2430,0.0588,0.0000
4.2440,0.0588,0.0000
4.2450,0.0587,0.0000
4.2460,0.0586,0.0000
4.2470,0.0585,0.0000
4.2480,0.0584,0.0000
4.2490,0.0584,0.0000
4.2500,0.0583,0.0000
4.2510,0.0582,0.0000
4.2520,0.0582,0.0000
4.2530,0.0581,0.0000
4.2540,0.0580,0.0000
4.2550,0.0580,0.0000
4.2560,0.0579,0.0000
4.2570,0.0578,0.0000
4.2580,0.0578,0.0000
4.2590,0.0577,0.0000
4.2600,0.0576,0.0000
4.2610,0.0575,0.0000
4.2620,0.0575,0.0000
4.2630,0.0574,0.0000
4.2640,0.0573,0.0000
4.2650,0.0572,0.0000
4.2660,0.0572,0.0000
4.2670,0.0571,0.0000
4.2680,0.0570,0.0000
4.2690,0.0570,0.0000
4.2700,0.0569,0.0000
4.2710,0.0568,0.0000
4.2720,0.0568,0.0000
4.2730,0.0567,0.0000
4.2740,0.0566,0.0000
4.2750,0.0566,0.0000
4.2760,0.0565,0.0000
4.2770,0.0564,0.0000
4.2780,0.0563,0.0000
4.2790,0.0562,0.0000
4.2800,0.0562,0.0000
4.2810,0.0561,0.0000
4.2820,0.0560,0.0000
4.2830,0.0560,0.0000
4.2840,0.0559,0.0000
4.2850,0.0558,0.0000
4.2860,0.0558,0.0000
4.2870,0.0557,0.0000
4.2880,0.0556,0.0000
4.2890,0.0555,0.0000
4.2900,0.0555,0.0000
4.2910,0.0554,0.0000
4.2920,0.0553,0.0000
4.2930,0.0553,0.0000
4.2940,0.0552,0.0000
4.2950,0.0551,0.0000
4.2960,0.0551,0.0000
4.2970,0.0550,0.0000
4.2980,0.0549,0.0000
4.2990,0.0548,0.0000
4.3000,0.0547,0.0000
4.3010,0.0547,0.0000
4.3020,0.0546,0.0000
4.3030,0.0546,0.0000
4.3040,0.0545,0.0000
4.3050,0.0544,0.0000
4.3060,0.0544,0.0000
4.3070,0.0543,0.0000
4.3080,0.0542,0.0000
4.3090,0.0541,0.0000
4.3100,0.0540,0.0000
4.3110,0.0540,0.0000
4.3120,0.0539,0.0000
4.3130,0.0539,0.0000
4.3140,0.0538,0.0000
4.3150,0.0537,0.0000
4.3160,0.0536,0.0000
4.3170,0.0536,0.0000
4.3180,0.0535,0.0000
4.3190,0.0534,0.0000
4.3200,0.0534,0.0000
4.3210,0.0533,0.0000
4.3220,0.0532,0.0000
4.3230,0.0532,0.0000
4.3240,0.0531,0.0000
4.3250,0.0530,0.0000
4.3260,0.0530,0.0000
4.3270,0.0529,0.0000
4.3280,0.0529,0.0000
4.3290,0.0528,0.0000
4.3300,0.0527,0.0000
4.3310,0.0526,0.0000
4.3320,0.0526,0.0000
4.3330,0.0525,0.0000
4.3340,0.0524,0.0000
4.3350,0.0523,0.0000
4.3360,0.0523,0.0000
4.3370,0.0522,0.0000
4.3380,0.0522,0.0000
4.3390,0.0521,0.0000
4.3400,0.0520,0.0000
4.3410,0.0520,0.0000
4.3420,0.0519,0.0000
4.3430,0.0518,0.0000
4.3440,0.0517,0.0000
4.3450,0.0517,0.0000
4.3460,0.0516,0.0000
4.3470,0.0515,0.0000
4.3480,0.0515,0.0000
4.3490,0.0514,0.0000
4.3500,0.0514,0.0000
4.3510,0.0513,0.0000
4.3520,0.0512,0.0000
4.3530,0.0512,0.0000
4.3540,0.0511,0.0000
4.3550,0.0510,0.0000
4.3560,0.0510,0.0000
4.3570,0.0509,0.0000
4.3580,0.0508,0.0000
4.3590,0.0507,0.0000
4.3600,0.0507,0.0000
4.3610,0.0506,0.0000
4.3620,0.0505,0.0000
4.3630,0.0505,0.0000
4.3640,0.0504,0.0000
4.3650,0.0504,0.0000
4.3660,0.0503,0.0000
4.3670,0.0502,0.0000
4.3680,0.0501,0.0000
4.3690,0.0501,0.0000
4.3700,0.0500,0.0000
4.3710,0.0499,0.0000
4.3720,0.0499,0.0000
4.3730,0.0498,0.0000
4.3740,0.0498,0.0000
4.3750,0.0497,0.0000
4.3760,0.0496,0.0000
4.3770,0.0496,0.0000
4.3780,0.0495,0.0000
4.3790,0.0495,0.0000
4.3800,0.0494,0.0000
4.3810,0.0493,0.0000
4.3820,0.0492,0.0000
4.3830,0.0492,0.0000
4.3840,0.0491,0.0000
4.3850,0.0490,0.0000
4.3860,0.0490,0.0000
4.3870,0.0489,0.0000
4.3880,0.0488,0.0000
4.3890,0.0488,0.0000
4.3900,0.0487,0.0000
4.3910,0.0487,0.0000
4.3920,0.0486,0.0000
4.3930,0.0486,0.0000
4.3940,0.0485,0.0000
4.3950,0.0484,0.0000
4.3960,0.0484,0.0000
4.3970,0.0483,0.0000
4.3980,0.0482,0.0000
4.3990,0.0481,0.0000
4.4000,0.0481,0.0000
4.4010,0.0480,0.0000
4.4020,0.0480,0.0000
4.4030,0.0479,0.0000
4.4040,0.0478,0.0000
4.4050,0.0478,0.0000
4.4060,0.0477,0.0000
4.4070,0.0477,0.0000
4.4080,0.0476,0.0000
4.4090,0.0476,0.0000
4.4100,0.0475,0.0000
4.4110,0.0474,0.0000
4.4120,0.0473,0.0000
4.4130,0.0473,0.0000
4.4140,0.0472,0.0000
4.4150,0.0471,0.0000
4.4160,0.0471,0.0000
4.4170,0.0470,0.0000
4.4180,0.0470,0.0000
4.4190,0.0469,0.0000
4.4200,0.0468,0.0000
4.4210,0.0468,0.0000
4.4220,0.0467,0.0000
4.4230,0.0467,0.0000
4.4240,0.0466,0.0000
4.4250,0.0465,0.0000
4.4260,0.0465,0.0000
4.4270,0.0464,0.0000
4.4280,0.0463,0.0000
4.4290,0.0463,0.0000
4.4300,0.0462,0.0000
4.4310,0.0461,0.0000
4.4320,0.0461,0.0000
4.4330,0.0460,0.0000
4.4340,0.0460,0.0000
4.4350,0.0459,0.0000
4.4360,0.0459,0.0000
4.4370,0.0458,0.0000
4.4380,0.0457,0.0000
4.4390,0.0457,0.0000
4.4400,0.0456,0.0000
4.4410,0.0456,0.0000
4.4420,0.0455,0.0000
4.4430,0.0454,0.0000
4.4440,0.0454,0.0000
4.4450,0.0453,0.0000
4.4460,0.0453,0.0000
4.4470,0.0452,0.0000
4.4480,0.0451,0.0000
4.4490,0.0450,0.0000
4.4500,0.0450,0.0000
4.4510,0.0449,0.0000
4.4520,0.0449,0.0000
4.4530,0.0448,0.0000
4.4540,0.0448,0.0000
4.4550,0.0447,0.0000
4.4560,0.0446,0.0000
4.4570,0.0446,0.0000
4.4580,0.0445,0.0000
4.4590,0.0445,0.0000
4.4600,0.0444,0.0000
4.4610,0.0443,0.0000
4.4620,0.0443,0.0000
4.4630,0.0442,0.0000
4.4640,0.0441,0.0000
4.4650,0.0441,0.0000
4.4660,0.0440,0.0000
4.4670,0.0440,0.0000
4.4680,0.0439,0.0000
4.4690,0.0439,0.0000
4.4700,0.0438,0.0000
4.4710,0.0437,0.0000
4.4720,0.0437,0.0000
4.4730,0.0436,0.0000
4.4740,0.0436,0.0000
4.4750,0.0435,0.0000
4.4760,0.0434,0.0000
4.4770,0.0434,0.0000
4.4780,0.0433,0.0000
4.4790,0.0432,0.0000
4.4800,0.0432,0.0000
4.4810,0.0431,0.0000
4.4820,0.0431,0.0000
4.4830,0.0430,0.0000
4.4840,0.0430,0.0000
4.4850,0.0429,0.0000
4.4860,0.0428,0.0000
4.4870,0.0428,0.0000
4.4880,0.0427,0.0000
4.4890,0.0427,0.0000
4.4900,0.0426,0.0000
4.4910,0.0426,0.0000
4.4920,0.0425,0.0000
4.4930,0.0424,0.0000
4.4940,0.0424,0.0000
4.4950,0.0423,0.0000
4.4960,0.0423,0.0000
4.4970,0.0422,0.0000
4.4980,0.0421,0.0000
4.4990,0.0421,0.0000
4.5000,0.0420,0.0000
4.5010,0.0419,0.0000
4.5020,0.0419,0.0000
4.5030,0.0418,0.0000
4.5040,0.0418,0.0000
4.5050,0.0417,0.0000
4.5060,0.0417,0.0000
4.5070,0.0416,0.0000
4.5080,0.0416,0.0000
4.5090,0.0415,0.0000
4.5100,0.0415,0.0000
4.5110,0.0414,0.0000
4.5120,0.0413,0.0000
4.5130,0.0413,0.0000
4.5140,0.0412,0.0000
4.5150,0.0411,0.0000
4.5160,0.0411,0.0000
4.5170,0.0410,0.0000
4.5180,0.0410,0.0000
4.5190,0.0409,0.0000
4.5200,0.0409,0.0000
4.5210,0.0408,0.0000
4.5220,0.0408,0.0000
4.5230,0.0407,0.0000
4.5240,0.0406,0.0000
4.5250,0.0406,0.0000
4.5260,0.0405,0.0000
4.5270,0.0405,0.0000
4.5280,0.0404,0.0000
4.5290,0.0403,0.0000
4.5300,0.0403,0.0000
4.5310,0.0402,0.0000
4.5320,0.0402,0.0000
4.5330,0.0401,0.0000
4.5340,0.0400,0.0000
4.5350,0.0400,0.0000
4.5360,0.0399,0.0000
4.5370,0.0399,0.0000
4.5380,0.0398,0.0000
4.5390,0.0398,0.0000
4.5400,0.0397,0.0000
4.5410,0.0397,0.0000
4.5420,0.0396,0.0000
4.5430,0.0396,0.0000
4.5440,0.0395,0.0000
4.5450,0.0395,0.0000
4.5460,0.0394,0.0000
4.5470,0.0393,0.0000
4.5480,0.0393,0.0000
4.5490,0.0392,0.0000
4.5500,0.0391,0.0000
4.5510,0.0391,0.0000
4.5520,0.0390,0.0000
4.5530,0.0390,0.0000
4.5540,0.0389,0.0000
4.5550,0.0389,0.0000
4.5560,0.0388,0.0000
4.5570,0.0388,0.0000
4.5580,0.0387,0.0000
4.5590,0.0387,0.0000
4.5600,0.0386,0.0000
4.5610,0.0386,0.0000
4.5620,0.0385,0.0000
4.5630,0.0384,0.0000
4.5640,0.0384,0.0000
4.5650,0.0383,0.0000
4.5660,0.0382,0.0000
4.5670,0.0382,0.0000
4.5680,0.0381,0.0000
4.5690,0.0381,0.0000
4.5700,0.0380,0.0000
4.5710,0.0380,0.0000
4.5720,0.0379,0.0000
4.5730,0.0379,0.0000
4.5740,0.0378,0.0000
4.5750,0.0378,0.0000
4.5760,0.0377,0.0000
4.5770,0.0377,0.0000
4.5780,0.0376,0.0000
4.5790,0.0375,0.0000
4.5800,0.0375,0.0000
4.5810,0.0374,0.0000
4.5820,0.0374,0.0000
4.5830,0.0373,0.0000
4.5840,0.0373,0.0000
4.5850,0.0372,0.0000
4.5860,0.0371,0.0000
4.5870,0.0371,0.0000
4.5880,0.0371,0.0000
4.5890,0.0370,0.0000
4.5900,0.0369,0.0000
4.5910,0.0369,0.0000
4.5920,0.0368,0.0000
4.5930,0.0368,0.0000
4.5940,0.0367,0.0000
4.5950,0.0367,0.0000
4.5960,0.0366,0.0000
4.5970,0.0366,0.0000
4.5980,0.0365,0.0000
4.5990,0.0364,0.0000
4.6000,0.0364,0.0000
4.6010,0.0363,0.0000
4.6020,0.0363,0.0000
4.6030,0.0362,0.0000
4.6040,0.0362,0.0000
4.6050,0.0361,0.0000
4.6060,0.0361,0.0000
4.6070,0.0360,0.0000
4.6080,0.0360,0.0000
4.6090,0.0359,0.0000
4.6100,0.0359,0.0000
4.6110,0.0358,0.0000
4.6120,0.0358,0.0000
4.6130,0.0357,0.0000
4.6140,0.0356,0.0000
4.6150,0.0356,0.0000
4.6160,0.0355,0.0000
4.6170,0.0355,0.0000
4.6180,0.0354,0.0000
4.6190,0.0354,0.0000
4.6200,0.0353,0.0000
4.6210,0.0353,0.0000
4.6220,0.0352,0.0000
4.6230,0.0352,0.0000
4.6240,0.0351,0.0000
4.6250,0.0351,0.0000
4.6260,0.0350,0.0000
4.6270,0.0350,0.0000
4.6280,0.0349,0.0000
4.6290,0.0349,0.0000
4.6300,0.0348,0.0000
4.6310,0.0347,0.0000
4.6320,0.0347,0.0000
4.6330,0.0346,0.0000
4.6340,0.0346,0.0000
4.6350,0.0345,0.0000
4.6360,0.0345,0.0000
4.6370,0.0344,0.0000
4.6380,0.0344,0.0000
4.6390,0.0343,0.0000
4.6400,0.0343,0.0000
4.6410,0.0342,0.0000
4.6420,0.0342,0.0000
4.6430,0.0341,0.0000
4.6440,0.0341,0.0000
4.6450,0.0340,0.0000
4.6460,0.0340,0.0000
4.6470,0.0339,0.0000
4.6480,0.0338,0.0000
4.6490,0.0338,0.0000
4.6500,0.0337,0.0000
4.6510,0.0337,0.0000
4.6520,0.0336,0.0000
4.6530,0.0336,0.0000
4.6540,0.0335,0.0000
4.6550,0.0335,0.0000
4.6560,0.0334,0.0000
4.6570,0.0334,0.0000
4.6580,0.0333,0.0000
4.6590,0.0333,0.0000
4.6600,0.0332,0.0000
4.6610,0.0332,0.0000
4.6620,0.0331,0.0000
4.6630,0.0331,0.0000
4.6640,0.0330,0.0000
4.6650,0.0330,0.0000
4.6660,0.0329,0.0000
4.6670,0.0329,0.0000
4.6680,0.0328,0.0000
4.6690,0.0327,0.0000
4.6700,0.0327,0.0000
4.6710,0.0326,0.0000
4.6720,0.0326,0.0000
4.6730,0.0325,0.0000
4.6740,0.0325,0.0000
4.6750,0.0325,0.0000
4.6760,0.0324,0.0000
4.6770,0.0323,0.0000
4.6780,0.0323,0.0000
4.6790,0.0323,0.0000
4.6800,0.0322,0.0000
4.6810,0.0322,0.0000
4.6820,0.0321,0.0000
4.6830,0.0320,0.0000
4.6840,0.0320,0.0000
4.6850,0.0319,0.0000
4.6860,0.0319,0.0000
4.6870,0.0318,0.0000
4.6880,0.0318,0.0000
4.6890,0.0317,0.0000
4.6900,0.0317,0.0000
4.6910,0.0316,0.0000
4.6920,0.0316,0.0000
4.6930,0.0315,0.0000
4.6940,0.0315,0.0000
4.6950,0.0314,0.0000
4.6960,0.0314,0.0000
4.6970,0.0313,0.0000
4.6980,0.0313,0.0000
4.6990,0.0312,0.0000
4.7000,0.0312,0.0000
4.7010,0.0311,0.0000
4.7020,0.0311,0.0000
4.7030,0.0310,0.0000
4.7040,0.0310,0.0000
4.7050,0.0309,0.0000
4.7060,0.0309,0.0000
4.7070,0.0308,0.0000
4.7080,0.0308,0.0000
4.7090,0.0307,0.0000
4.7100,0.0307,0.0000
4.7110,0.0306,0.0000
4.7120,0.0306,0.0000
4.7130,0.0305,0.0000
4.7140,0.0305,0.0000
4.7150,0.0304,0.0000
4.7160,0.0304,0.0000
4.7170,0.0303,0.0000
4.7180,0.0303,0.0000
4.7190,0.0302,0.0000
4.7200,0.0302,0.0000
4.7210,0.0301,0.0000
4.7220,0.0301,0.0000
4.7230,0.0300,0.0000
4.7240,0.0300,0.0000
4.7250,0.0299,0.0000
4.7260,0.0299,0.0000
4.7270,0.0298,0.0000
4.7280,0.0298,0.0000
4.7290,0.0297,0.0000
4.7300,0.0297,0.0000
4.7310,0.0297,0.0000
4.7320,0.0296,0.0000
4.7330,0.0296,0.0000
4.7340,0.0295,0.0000
4.7350,0.0295,0.0000
4.7360,0.0294,0.0000
4.7370,0.0293,0.0000
4.7380,0.0293,0.0000
4.7390,0.0292,0.0000
4.7400,0.0292,0.0000
4.7410,0.0291,0.0000
4.7420,0.0291,0.0000
4.7430,0.0291,0.0000
4.7440,0.0290,0.0000
4.7450,0.0290,0.0000
4.7460,0.0289,0.0000
4.7470,0.0289,0.0000
4.7480,0.0288,0.0000
4.7490,0.0288,0.0000
4.7500,0.0287,0.0000
4.7510,0.0287,0.0000
4.7520,0.0286,0.0000
4.7530,0.0286,0.0000
4.7540,0.0285,0.0000
4.7550,0.0285,0.0000
4.7560,0.0284,0.0000
4.7570,0.0284,0.0000
4.7580,0.0283,0.0000
4.7590,0.0283,0.0000
4.7600,0.0282,0.0000
4.7610,0.0282,0.0000
4.7620,0.0281,0.0000
4.7630,0.0281,0.0000
4.7640,0.0280,0.0000
4.7650,0.0280,0.0000
4.7660,0.0280,0.0000
4.7670,0.0279,0.0000
4.7680,0.0279,0.0000
4.7690,0.0278,0.0000
4.7700,0.0278,0.0000
4.7710,0.0277,0.0000
4.7720,0.0277,0.0000
4.7730,0.0276,0.0000
4.7740,0.0276,0.0000
4.7750,0.0275,0.0000
4.7760,0.0275,0.0000
4.7770,0.0274,0.0000
4.7780,0.0274,0.0000
4.7790,0.0273,0.0000
4.7800,0.0273,0.0000
4.7810,0.0272,0.0000
4.7820,0.0272,0.0000
4.7830,0.0271,0.0000
4.7840,0.0271,0.0000
4.7850,0.0270,0.0000
4.7860,0.0270,0.0000
4.7870,0.0270,0.0000
4.7880,0.0269,0.0000
4.7890,0.0269,0.0000
4.7900,0.0268,0.0000
4.7910,0.0268,0.0000
4.7920,0.0267,0.0000
4.7930,0.0267,0.0000
4.7940,0.0266,0.0000
4.7950,0.0266,0.0000
4.7960,0.0265,0.0000
4.7970,0.0265,0.0000
4.7980,0.0264,0.0000
4.7990,0.0264,0.0000
4.8000,0.0263,0.0000
4.8010,0.0263,0.0000
4.8020,0.0262,0.0000
4.8030,0.0262,0.0000
4.8040,0.0262,0.0000
4.8050,0.0261,0.0000
4.8060,0.0261,0.0000
4.8070,0.0260,0.0000
4.8080,0.0260,0.0000
4.8090,0.0259,0.0000
4.8100,0.0259,0.0000
4.8110,0.0258,0.0000
4.8120,0.0258,0.0000
4.8130,0.0257,0.0000
4.8140,0.0257,0.0000
4.8150,0.0256,0.0000
4.8160,0.0256,0.0000
4.8170,0.0256,0.0000
4.8180,0.0255,0.0000
4.8190,0.0255,0.0000
4.8200,0.0254,0.0000
4.8210,0.0254,0.0000
4.8220,0.0253,0.0000
4.8230,0.0253,0.0000
4.8240,0.0252,0.0000
4.8250,0.0252,0.0000
4.8260,0.0251,0.0000
4.8270,0.0251,0.0000
4.8280,0.0250,0.0000
4.8290,0.0250,0.0000
4.8300,0.0249,0.0000
4.8310,0.0249,0.0000
4.8320,0.0248,0.0000
4.8330,0.0248,0.0000
4.8340,0.0248,0.0000
4.8350,0.0247,0.0000
4.8360,0.0247,0.0000
4.8370,0.0246,0.0000
4.8380,0.0246,0.0000
4.8390,0.0245,0.0000
4.8400,0.0245,0.0000
4.8410,0.0245,0.0000
4.8420,0.0244,0.0000
4.8430,0.0244,0.0000
4.8440,0.0243,0.0000
4.8450,0.0243,0.0000
4.8460,0.0242,0.0000
4.8470,0.0242,0.0000
4.8480,0.0241,0.0000
4.8490,0.0241,0.0000
4.8500,0.0240,0.0000
4.8510,0.0240,0.0000
4.8520,0.0239,0.0000
4.8530,0.0239,0.0000
4.8540,0.0239,0.0000
4.8550,0.0238,0.0000
4.8560,0.0238,0.0000
4.8570,0.0237,0.0000
4.8580,0.0237,0.0000
4.8590,0.0236,0.0000
4.8600,0.0236,0.0000
4.8610,0.0236,0.0000
4.8620,0.0235,0.0000
4.8630,0.0235,0.0000
4.8640,0.0234,0.0000
4.8650,0.0234,0.0000
4.8660,0.0233,0.0000
4.8670,0.0233,0.0000
4.8680,0.0232,0.0000
4.8690,0.0232,0.0000
4.8700,0.0231,0.0000
4.8710,0.0231,0.0000
4.8720,0.0231,0.0000
4.8730,0.0230,0.0000
4.8740,0.0230,0.0000
4.8750,0.0229,0.0000
4.8760,0.0229,0.0000
4.8770,0.0228,0.0000
4.8780,0.0228,0.0000
4.8790,0.0228,0.0000
4.8800,0.0227,0.0000
4.8810,0.0227,0.0000
4.8820,0.0226,0.0000
4.8830,0.0226,0.0000
4.8840,0.0225,0.0000
4.8850,0.0225,0.0000
4.8860,0.0224,0.0000
4.8870,0.0224,0.0000
4.8880,0.0223,0.0000
4.8890,0.0223,0.0000
4.8900,0.0223,0.0000
4.8910,0.0222,0.0000
4.8920,0.0222,0.0000
4.8930,0.0221,0.0000
4.8940,0.0221,0.0000
4.8950,0.0221,0.0000
4.8960,0.0220,0.0000
4.8970,0.0220,0.0000
4.8980,0.0219,0.0000
4.8990,0.0219,0.0000
4.9000,0.0218,0.0000
4.9010,0.0218,0.0000
4.9020,0.0217,0.0000
4.9030,0.0217,0.0000
4.9040,0.0216,0.0000
4.9050,0.0216,0.0000
4.9060,0.0216,0.0000
4.9070,0.0215,0.0000
4.9080,0.0215,0.0000
4.9090,0.0214,0.0000
4.9100,0.0214,0.0000
4.9110,0.0214,0.0000
4.9120,0.0213,0.0000
4.9130,0.0213,0.0000
4.9140,0.0212,0.0000
4.9150,0.0212,0.0000
4.9160,0.0211,0.0000
4.9170,0.0211,0.0000
4.9180,0.0211,0.0000
4.9190,0.0210,0.0000
4.9200,0.0210,0.0000
4.9210,0.0209,0.0000
4.9220,0.0209,0.0000
4.9230,0.0208,0.0000
4.9240,0.0208,0.0000
4.9250,0.0207,0.0000
4.9260,0.0207,0.0000
4.9270,0.0206,0.0000
4.9280,0.0206,0.0000
4.9290,0.0206,0.0000
4.9300,0.0205,0.0000
4.9310,0.0205,0.0000
4.9320,0.0204,0.0000
4.9330,0.0204,0.0000
4.9340,0.0204,0.0000
4.9350,0.0203,0.0000
4.9360,0.0203,0.0000
4.9370,0.0202,0.0000
4.9380,0.0202,0.0000
4.9390,0.0201,0.0000
4.9400,0.0201,0.0000
4.9410,0.0201,0.0000
4.9420,0.0200,0.0000
4.9430,0.0200,0.0000
4.9440,0.0199,0.0000
4.9450,0.0199,0.0000
4.9460,0.0199,0.0000
4.9470,0.0198,0.0000
4.9480,0.0198,0.0000
4.9490,0.0197,0.0000
4.9500,0.0197,0.0000
4.9510,0.0196,0.0000
4.9520,0.0196,0.0000
4.9530,0.0196,0.0000
4.9540,0.0195,0.0000
4.9550,0.0195,0.0000
4.9560,0.0194,0.0000
4.9570,0.0194,0.0000
4.9580,0.0193,0.0000
4.9590,0.0193,0.0000
4.9600,0.0193,0.0000
4.9610,0.0192,0.0000
4.9620,0.0192,0.0000
4.9630,0.0191,0.0000
4.9640,0.0191,0.0000
4.9650,0.0191,0.0000
4.9660,0.0190,0.0000
4.9670,0.0190,0.0000
4.9680,0.0189,0.0000
4.9690,0.0189,0.0000
4.9700,0.0189,0.0000
4.9710,0.0188,0.0000
4.9720,0.0188,0.0000
4.9730,0.0187,0.0000
4.9740,0.0187,0.0000
4.9750,0.0187,0.0000
4.9760,0.0186,0.0000
4.9770,0.0186,0.0000
4.9780,0.0185,0.0000
4.9790,0.0185,0.0000
4.9800,0.0184,0.0000
4.9810,0.0184,0.0000
4.9820,0.0183,0.0000
4.9830,0.0183,0.0000
4.9840,0.0183,0.0000
4.9850,0.0182,0.0000
4.9860,0.0182,0.0000
4.9870,0.0181,0.0000
4.9880,0.0181,0.0000
4.9890,0.0181,0.0000
4.9900,0.0180,0.0000
4.9910,0.0180,0.0000
4.9920,0.0180,0.0000
4.9930,0.0179,0.0000
4.9940,0.0179,0.0000
4.9950,0.0178,0.0000
4.9960,0.0178,0.0000
4.9970,0.0177,0.0000
4.9980,0.0177,0.0000
4.9990,0.0177,0.0000
5.0000,0.0176,0.0000
5.0010,0.0176,0.0000
5.0020,0.0175,0.0000
5.0030,0.0175,0.0000
5.0040,0.0174,0.0000
5.0050,0.0174,0.0000
5.0060,0.0174,0.0000
5.0070,0.0173,0.0000
5.0080,0.0173,0.0000
5.0090,0.0172,0.0000
5.0100,0.0172,0.0000
5.0110,0.0172,0.0000
5.0120,0.0171,0.0000
5.0130,0.0171,0.0000
5.0140,0.0170,0.0000
5.0150,0.0170,0.0000
5.0160,0.0170,0.0000
5.0170,0.0169,0.0000
5.0180,0.0169,0.0000
5.0190,0.0168,0.0000
5.0200,0.0168,0.0000
5.0210,0.0168,0.0000
5.0220,0.0167,0.0000
5.0230,0.0167,0.0000
5.0240,0.0166,0.0000
5.0250,0.0166,0.0000
5.0260,0.0166,0.0000
5.0270,0.0165,0.0000
5.0280,0.0165,0.0000
5.0290,0.0164,0.0000
5.0300,0.0164,0.0000
5.0310,0.0163,0.0000
5.0320,0.0163,0.0000
5.0330,0.0163,0.0000
5.0340,0.0162,0.0000
5.0350,0.0162,0.0000
5.0360,0.0161,0.0000
5.0370,0.0161,0.0000
5.0380,0.0161,0.0000
5.0390,0.0160,0.0000
5.0400,0.0160,0.0000
5.0410,0.0160,0.0000
5.0420,0.0159,0.0000
5.0430,0.0159,0.0000
5.0440,0.0158,0.0000
5.0450,0.0158,0.0000
5.0460,0.0158,0.0000
5.0470,0.0157,0.0000
5.0480,0.0157,0.0000
5.0490,0.0156,0.0000
5.0500,0.0156,0.0000
5.0510,0.0156,0.0000
5.0520,0.0155,0.0000
5.0530,0.0155,0.0000
5.0540,0.0154,0.0000
5.0550,0.0154,0.0000
5.0560,0.0154,0.0000
5.0570,0.0153,0.0000
5.0580,0.0153,0.0000
5.0590,0.0152,0.0000
5.0600,0.0152,0.0000
5.0610,0.0152,0.0000
5.0620,0.0151,0.0000
5.0630,0.0151,0.0000
5.0640,0.0150,0.0000
5.0650,0.0150,0.0000
5.0660,0.0150,0.0000
5.0670,0.0149,0.0000
5.0680,0.0149,0.0000
5.0690,0.0148,0.0000
5.0700,0.0148,0.0000
5.0710,0.0148,0.0000
5.0720,0.0147,0.0000
5.0730,0.0147,0.0000
5.0740,0.0147,0.0000
5.0750,0.0146,0.0000
5.0760,0.0146,0.0000
5.0770,0.0145,0.0000
5.0780,0.0145,0.0000
5.0790,0.0145,0.0000
5.0800,0.0144,0.0000
5.0810,0.0144,0.0000
5.0820,0.0143,0.0000
5.0830,0.0143,0.0000
5.0840,0.0143,0.0000
5.0850,0.0142,0.0000
5.0860,0.0142,0.0000
5.0870,0.0142,0.0000
5.0880,0.0141,0.0000
5.0890,0.0141,0.0000
5.0900,0.0140,0.0000
5.0910,0.0140,0.0000
5.0920,0.0140,0.0000
5.0930,0.0139,0.0000
5.0940,0.0139,0.0000
5.0950,0.0138,0.0000
5.0960,0.0138,0.0000
5.0970,0.0138,0.0000
5.0980,0.0137,0.0000
5.0990,0.0137,0.0000
5.1000,0.0137,0.0000
5.1010,0.0136,0.0000
5.1020,0.0136,0.0000
5.1030,0.0135,0.0000
5.1040,0.0135,0.0000
5.1050,0.0135,0.0000
5.1060,0.0134,0.0000
5.1070,0.0134,0.0000
5.1080,0.0133,0.0000
5.1090,0.0133,0.0000
5.1100,0.0133,0.0000
5.1110,0.0132,0.0000
5.1120,0.0132,0.0000
5.1130,0.0132,0.0000
5.1140,0.0131,0.0000
5.1150,0.0131,0.0000
5.1160,0.0131,0.0000
5.1170,0.0130,0.0000
5.1180,0.0130,0.0000
5.1190,0.0129,0.0000
5.1200,0.0129,0.0000
5.1210,0.0129,0.0000
5.1220,0.0128,0.0000
5.1230,0.0128,0.0000
5.1240,0.0127,0.0000
5.1250,0.0127,0.0000
5.1260,0.0127,0.0000
5.1270,0.0126,0.0000
5.1280,0.0126,0.0000
5.1290,0.0126,0.0000
5.1300,0.0125,0.0000
5.1310,0.0125,0.0000
5.1320,0.0124,0.0000
5.1330,0.0124,0.0000
5.1340,0.0124,0.0000
5.1350,0.0123,0.0000
5.1360,0.0123,0.0000
5.1370,0.0123,0.0000
5.1380,0.0122,0.0000
5.1390,0.0122,0.0000
5.1400,0.0121,0.0000
5.1410,0.0121,0.0000
5.1420,0.0121,0.0000
5.1430,0.0120,0.0000
5.1440,0.0120,0.0000
5.1450,0.0120,0.0000
5.1460,0.0119,0.0000
5.1470,0.0119,0.0000
5.1480,0.0119,0.0000
5.1490,0.0118,0.0000
5.1500,0.0118,0.0000
5.1510,0.0117,0.0000
5.1520,0.0117,0.0000
5.1530,0.0117,0.0000
5.1540,0.0116,0.0000
5.1550,0.0116,0.0000
5.1560,0.0115,0.0000
5.1570,0.0115,0.0000
5.1580,0.0115,0.0000
5.1590,0.0114,0.0000
5.1600,0.0114,0.0000
5.1610,0.0114,0.0000
5.1620,0.0113,0.0000
5.1630,0.0113,0.0000
5.1640,0.0113,0.0000
5.1650,0.0112,0.0000
5.1660,0.0112,0.0000
5.1670,0.0111,0.0000
5.1680,0.0111,0.0000
5.1690,0.0111,0.0000
5.1700,0.0110,0.0000
5.1710,0.0110,0.0000
5.1720,0.0110,0.0000
5.1730,0.0109,0.0000
5.1740,0.0109,0.0000
5.1750,0.0109,0.0000
5.1760,0.0108,0.0000
5.1770,0.0108,0.0000
5.1780,0.0107,0.0000
5.1790,0.0107,0.0000
5.1800,0.0107,0.0000
5.1810,0.0106,0.0000
5.1820,0.0106,0.0000
5.1830,0.0106,0.0000
5.1840,0.0105,0.0000
5.1850,0.0105,0.0000
5.1860,0.0104,0.0000
5.1870,0.0104,0.0000
5.1880,0.0104,0.0000
5.1890,0.0103,0.0000
5.1900,0.0103,0.0000
5.1910,0.0103,0.0000
5.1920,0.0102,0.0000
5.1930,0.0102,0.0000
5.1940,0.0102,0.0000
5.1950,0.0101,0.0000
5.1960,0.0101,0.0000
5.1970,0.0100,0.0000
5.1980,0.0100,0.0000
5.1990,0.0100,0.0000
5.2000,0.0099,0.0000
5.2010,0.0099,0.0000
5.2020,0.0099,0.0000
5.2030,0.0098,0.0000
5.2040,0.0098,0.0000
5.2050,0.0098,0.0000
5.2060,0.0097,0.0000
5.2070,0.0097,0.0000
5.2080,0.0097,0.0000
5.2090,0.0096,0.0000
5.2100,0.0096,0.0000
5.2110,0.0095,0.0000
5.2120,0.0095,0.0000
5.2130,0.0095,0.0000
5.2140,0.0094,0.0000
5.2150,0.0094,0.0000
5.2160,0.0094,0.0000
5.2170,0.0093,0.0000
5.2180,0.0093,0.0000
5.2190,0.0093,0.0000
5.2200,0.0092,0.0000
5.2210,0.0092,0.0000
5.2220,0.0092,0.0000
5.2230,0.0091,0.0000
5.2240,0.0091,0.0000
5.2250,0.0091,0.0000
5.2260,0.0090,0.0000
5.2270,0.0090,0.0000
5.2280,0.0089,0.0000
5.2290,0.0089,0.0000
5.2300,0.0089,0.0000
5.2310,0.0088,0.0000
5.2320,0.0088,0.0000
5.2330,0.0088,0.0000
5.2340,0.0087,0.0000
5.2350,0.0087,0.0000
5.2360,0.0087,0.0000
5.2370,0.0086,0.0000
5.2380,0.0086,0.0000
5.2390,0.0086,0.0000
5.2400,0.0085,0.0000
5.2410,0.0085,0.0000
5.2420,0.0084,0.0000
5.2430,0.0084,0.0000
5.2440,0.0084,0.0000
5.2450,0.0083,0.0000
5.2460,0.0083,0.0000
5.2470,0.0083,0.0000
5.2480,0.0082,0.0000
5.2490,0.0082,0.0000
5.2500,0.0082,0.0000
5.2510,0.0081,0.0000
5.2520,0.0081,0.0000
5.2530,0.0081,0.0000
5.2540,0.0080,0.0000
5.2550,0.0080,0.0000
5.2560,0.0080,0.0000
5.2570,0.0079,0.0000
5.2580,0.0079,0.0000
5.2590,0.0079,0.0000
5.2600,0.0078,0.0000
5.2610,0.0078,0.0000
5.2620,0.0077,0.0000
5.2630,0.0077,0.0000
5.2640,0.0077,0.0000
5.2650,0.0077,0.0000
5.2660,0.0076,0.0000
5.2670,0.0076,0.0000
5.2680,0.0076,0.0000
5.2690,0.0075,0.0000
5.2700,0.0075,0.0000
5.2710,0.0074,0.0000
5.2720,0.0074,0.0000
5.2730,0.0074,0.0000
5.2740,0.0073,0.0000
5.2750,0.0073,0.0000
5.2760,0.0073,0.0000
5.2770,0.0072,0.0000
5.2780,0.0072,0.0000
5.2790,0.0072,0.0000
5.2800,0.0071,0.0000
5.2810,0.0071,0.0000
5.2820,0.0071,0.0000
5.2830,0.0070,0.0000
5.2840,0.0070,0.0000
5.2850,0.0070,0.0000
5.2860,0.0069,0.0000
5.2870,0.0069,0.0000
5.2880,0.0069,0.0000
5.2890,0.0068,0.0000
5.2900,0.0068,0.0000
5.2910,0.0068,0.0000
5.2920,0.0067,0.0000
5.2930,0.0067,0.0000
5.2940,0.0066,0.0000
5.2950,0.0066,0.0000
5.2960,0.0066,0.0000
5.2970,0.0066,0.0000
5.2980,0.0065,0.0000
5.2990,0.0065,0.0000
5.3000,0.0065,0.0000
5.3010,0.0064,0.0000
5.3020,0.0064,0.0000
5.3030,0.0063,0.0000
5.3040,0.0063,0.0000
5.3050,0.0063,0.0000
5.3060,0.0062,0.0000
5.3070,0.0062,0.0000
5.3080,0.0062,0.0000
5.3090,0.0061,0.0000
5.3100,0.0061,0.0000
5.3110,0.0061,0.0000
5.3120,0.0060,0.0000
5.3130,0.0060,0.0000
5.3140,0.0060,0.0000
5.3150,0.0059,0.0000
5.3160,0.0059,0.0000
5.3170,0.0059,0.0000
5.3180,0.0058,0.0000
5.3190,0.0058,0.0000
5.3200,0.0058,0.0000
5.3210,0.0057,0.0000
5.3220,0.0057,0.0000
5.3230,0.0057,0.0000
5.3240,0.0056,0.0000
5.3250,0.0056,0.0000
5.3260,0.0056,0.0000
5.3270,0.0055,0.0000
5.3280,0.0055,0.0000
5.3290,0.0055,0.0000
5.3300,0.0054,0.0000
5.3310,0.0054,0.0000
5.3320,0.0054,0.0000
5.3330,0.0053,0.0000
5.3340,0.0053,0.0000
5.3350,0.0053,0.0000
5.3360,0.0052,0.0000
5.3370,0.0052,0.0000
5.3380,0.0052,0.0000
5.3390,0.0051,0.0000
5.3400,0.0051,0.0000
5.3410,0.0051,0.0000
5.3420,0.0050,0.0000
5.3430,0.0050,0.0000
5.3440,0.0050,0.0000
5.3450,0.0049,0.0000
5.3460,0.0049,0.0000
5.3470,0.0049,0.0000
5.3480,0.0048,0.0000
5.3490,0.0048,0.0000
5.3500,0.0048,0.0000
5.3510,0.0047,0.0000
5.3520,0.0047,0.0000
5.3530,0.0047,0.0000
5.3540,0.0046,0.0000
5.3550,0.0046,0.0000
5.3560,0.0046,0.0000
5.3570,0.0045,0.0000
5.3580,0.0045,0.0000
5.3590,0.0045,0.0000
5.3600,0.0044,0.0000
5.3610,0.0044,0.0000
5.3620,0.0044,0.0000
5.3630,0.0043,0.0000
5.3640,0.0043,0.0000
5.3650,0.0043,0.0000
5.3660,0.0043,0.0000
5.3670,0.0042,0.0000
5.3680,0.0042,0.0000
5.3690,0.0041,0.0000
5.3700,0.0041,0.0000
5.3710,0.0041,0.0000
5.3720,0.0041,0.0000
5.3730,0.0040,0.0000
5.3740,0.0040,0.0000
5.3750,0.0039,0.0000
5.3760,0.0039,0.0000
5.3770,0.0039,0.0000
5.3780,0.0038,0.0000
5.3790,0.0038,0.0000
5.3800,0.0038,0.0000
5.3810,0.0038,0.0000
5.3820,0.0037,0.0000
5.3830,0.0037,0.0000
5.3840,0.0037,0.0000
5.3850,0.0036,0.0000
5.3860,0.0036,0.0000
5.3870,0.0036,0.0000
5.3880,0.0035,0.0000
5.3890,0.0035,0.0000
5.3900,0.0035,0.0000
5.3910,0.0034,0.0000
5.3920,0.0034,0.0000
5.3930,0.0034,0.0000
5.3940,0.0033,0.0000
5.3950,0.0033,0.0000
5.3960,0.0033,0.0000
5.3970,0.0032,0.0000
5.3980,0.0032,0.0000
5.3990,0.0032,0.0000
5.4000,0.0031,0.0000
5.4010,0.0031,0.0000
5.4020,0.0031,0.0000
5.4030,0.0030,0.0000
5.4040,0.0030,0.0000
5.4050,0.0030,0.0000
5.4060,0.0030,0.0000
5.4070,0.0029,0.0000
5.4080,0.0029,0.0000
5.4090,0.0029,0.0000
5.4100,0.0028,0.0000
5.4110,0.0028,0.0000
5.4120,0.0028,0.0000
5.4130,0.0027,0.0000
5.4140,0.0027,0.0000
5.4150,0.0027,0.0000
5.4160,0.0026,0.0000
5.4170,0.0026,0.0000
5.4180,0.0026,0.0000
5.4190,0.0025,0.0000
5.4200,0.0025,0.0000
5.4210,0.0025,0.0000
5.4220,0.0024,0.0000
5.4230,0.0024,0.0000
5.4240,0.0024,0.0000
5.4250,0.0023,0.0000
5.4260,0.0023,0.0000
5.4270,0.0023,0.0000
5.4280,0.0022,0.0000
5.4290,0.0022,0.0000
5.4300,0.0022,0.0000
5.4310,0.0022,0.0000
5.4320,0.0021,0.0000
5.4330,0.0021,0.0000
5.4340,0.0021,0.0000
5.4350,0.0020,0.0000
5.4360,0.0020,0.0000
5.4370,0.0020,0.0000
5.4380,0.0019,0.0000
5.4390,0.0019,0.0000
5.4400,0.0019,0.0000
5.4410,0.0018,0.0000
5.4420,0.0018,0.0000
5.4430,0.0018,0.0000
5.4440,0.0017,0.0000
5.4450,0.0017,0.0000
5.4460,0.0017,0.0000
5.4470,0.0016,0.0000
5.4480,0.0016,0.0000
5.4490,0.0016,0.0000
5.4500,0.0016,0.0000
5.4510,0.0015,0.0000
5.4520,0.0015,0.0000
5.4530,0.0015,0.0000
5.4540,0.0014,0.0000
5.4550,0.0014,0.0000
5.4560,0.0014,0.0000
5.4570,0.0013,0.0000
5.4580,0.0013,0.0000
5.4590,0.0013,0.0000
5.4600,0.0012,0.0000
5.4610,0.0012,0.0000
5.4620,0.0012,0.0000
5.4630,0.0011,0.0000
5.4640,0.0011,0.0000
5.4650,0.0011,0.0000
5.4660,0.0010,0.0000
5.4670,0.0010,0.0000
5.4680,0.0010,0.0000
5.4690,0.0010,0.0000
5.4700,0.0009,0.0000
5.4710,0.0009,0.0000
5.4720,0.0009,0.0000
5.4730,0.0008,0.0000
5.4740,0.0008,0.0000
5.4750,0.0008,0.0000
5.4760,0.0007,0.0000
5.4770,0.0007,0.0000
5.4780,0.0007,0.0000
5.4790,0.0007,0.0000
5.4800,0.0006,0.0000
5.4810,0.0006,0.0000
5.4820,0.0005,0.0000
5.4830,0.0005,0.0000
5.4840,0.0005,0.0000
5.4850,0.0005,0.0000
5.4860,0.0004,0.0000
5.4870,0.0004,0.0000
5.4880,0.0004,0.0000
5.4890,0.0003,0.0000
5.4900,0.0003,0.0000
5.4910,0.0003,0.0000
5.4920,0.0003,0.0000
5.4930,0.0002,0.0000
5.4940,0.0002,0.0000
5.4950,0.0002,0.0000
5.4960,0.0001,0.0000
5.4970,0.0001,0.0000
5.4980,0.0001,0.0000
5.4990,0.0000,0.0000
5.5000,0.0000,0.0000
