# wavelength (microns), transmission, emissivity
0.5500,0.0274,0.0000
0.5510,0.0301,0.0000
0.5520,0.0332,0.0000
0.5530,0.0367,0.0000
0.5540,0.0403,0.0000
0.5550,0.0442,0.0000
0.5560,0.0485,0.0000
0.5570,0.0530,0.0000
0.5580,0.0578,0.0000
0.5590,0.0630,0.0000
0.5600,0.0683,0.0000
0.5610,0.0738,0.0000
0.5620,0.0802,0.0000
0.5630,0.0865,0.0000
0.5640,0.0933,0.0000
0.5650,0.1001,0.0000
0.5660,0.1073,0.0000
0.5670,0.1149,0.0000
0.5680,0.1227,0.0000
0.5690,0.1303,0.0000
0.5700,0.1386,0.0000
0.5710,0.1468,0.0000
0.5720,0.1557,0.0000
0.5730,0.1647,0.0000
0.5740,0.1732,0.0000
0.5750,0.1819,0.0000
0.5760,0.1908,0.0000
0.5770,0.1999,0.0000
0.5780,0.2088,0.0000
0.5790,0.2175,0.0000
0.5800,0.2263,0.0000
0.5810,0.2348,0.0000
0.5820,0.2438,0.0000
0.5830,0.2522,0.0000
0.5840,0.2602,0.0000
0.5850,0.2679,0.0000
0.5860,0.2757,0.0000
0.5870,0.2832,0.0000
0.5880,0.2902,0.0000
0.5890,0.2968,0.0000
0.5900,0.3029,0.0000
0.5910,0.3091,0.0000
0.5920,0.3152,0.0000
0.5930,0.3205,0.0000
0.5940,0.3253,0.0000
0.5950,0.3301,0.0000
0.5960,0.3344,0.0000
0.5970,0.3382,0.0000
0.5980,0.3420,0.0000
0.5990,0.3459,0.0000
0.6000,0.3492,0.0000
0.6010,0.3520,0.0000
0.6020,0.3557,0.0000
0.6030,0.3586,0.0000
0.6040,0.3609,0.0000
0.6050,0.3637,0.0000
0.6060,0.3655,0.0000
0.6070,0.3678,0.0000
0.6080,0.3701,0.0000
0.6090,0.3718,0.0000
0.6100,0.3736,0.0000
0.6110,0.3751,0.0000
0.6120,0.3768,0.0000
0.6130,0.3780,0.0000
0.6140,0.3797,0.0000
0.6150,0.3809,0.0000
0.6160,0.3826,0.0000
0.6170,0.3838,0.0000
0.6180,0.3849,0.0000
0.6190,0.3867,0.0000
0.6200,0.3878,0.0000
0.6210,0.3889,0.0000
0.6220,0.3901,0.0000
0.6230,0.3913,0.0000
0.6240,0.3925,0.0000
0.6250,0.3937,0.0000
0.6260,0.3949,0.0000
0.6270,0.3962,0.0000
0.6280,0.3974,0.0000
0.6290,0.3980,0.0000
0.6300,0.3992,0.0000
0.6310,0.4009,0.0000
0.6320,0.4015,0.0000
0.6330,0.4026,0.0000
0.6340,0.4038,0.0000
0.6350,0.4044,0.0000
0.6360,0.4056,0.0000
0.6370,0.4062,0.0000
0.6380,0.4068,0.0000
0.6390,0.4080,0.0000
0.6400,0.4086,0.0000
0.6410,0.4097,0.0000
0.6420,0.4109,0.0000
0.6430,0.4116,0.0000
0.6440,0.4122,0.0000
0.6450,0.4129,0.0000
0.6460,0.4135,0.0000
0.6470,0.4142,0.0000
0.6480,0.4148,0.0000
0.6490,0.4149,0.0000
0.6500,0.4161,0.0000
0.6510,0.4166,0.0000
0.6520,0.4166,0.0000
0.6530,0.4172,0.0000
0.6540,0.4178,0.0000
0.6550,0.4178,0.0000
0.6560,0.4184,0.0000
0.6570,0.4184,0.0000
0.6580,0.4184,0.0000
0.6590,0.4184,0.0000
0.6600,0.4190,0.0000
0.6610,0.4189,0.0000
0.6620,0.4189,0.0000
0.6630,0.4190,0.0000
0.6640,0.4196,0.0000
0.6650,0.4197,0.0000
0.6660,0.4197,0.0000
0.6670,0.4191,0.0000
0.6680,0.4192,0.0000
0.6690,0.4198,0.0000
0.6700,0.4199,0.0000
0.6710,0.4197,0.0000
0.6720,0.4197,0.0000
0.6730,0.4203,0.0000
0.6740,0.4203,0.0000
0.6750,0.4197,0.0000
0.6760,0.4197,0.0000
0.6770,0.4203,0.0000
0.6780,0.4197,0.0000
0.6790,0.4197,0.0000
0.6800,0.4203,0.0000
0.6810,0.4208,0.0000
0.6820,0.4209,0.0000
0.6830,0.4203,0.0000
0.6840,0.4209,0.0000
0.6850,0.4210,0.0000
0.6860,0.4216,0.0000
0.6870,0.4217,0.0000
0.6880,0.4217,0.0000
0.6890,0.4224,0.0000
0.6900,0.4229,0.0000
0.6910,0.4235,0.0000
0.6920,0.4235,0.0000
0.6930,0.4235,0.0000
0.6940,0.4241,0.0000
0.6950,0.4241,0.0000
0.6960,0.4247,0.0000
0.6970,0.4253,0.0000
0.6980,0.4259,0.0000
0.6990,0.4265,0.0000
0.7000,0.4270,0.0000
0.7010,0.4282,0.0000
0.7020,0.4278,0.0000
0.7030,0.4284,0.0000
0.7040,0.4296,0.0000
0.7050,0.4296,0.0000
0.7060,0.4308,0.0000
0.7070,0.4308,0.0000
0.7080,0.4316,0.0000
0.7090,0.4329,0.0000
0.7100,0.4329,0.0000
0.7110,0.4341,0.0000
0.7120,0.4348,0.0000
0.7130,0.4361,0.0000
0.7140,0.4368,0.0000
0.7150,0.4381,0.0000
0.7160,0.4382,0.0000
0.7170,0.4389,0.0000
0.7180,0.4402,0.0000
0.7190,0.4415,0.0000
0.7200,0.4428,0.0000
0.7210,0.4434,0.0000
0.7220,0.4441,0.0000
0.7230,0.4448,0.0000
0.7240,0.4455,0.0000
0.7250,0.4467,0.0000
0.7260,0.4480,0.0000
0.7270,0.4493,0.0000
0.7280,0.4499,0.0000
0.7290,0.4512,0.0000
0.7300,0.4524,0.0000
0.7310,0.4526,0.0000
0.7320,0.4538,0.0000
0.7330,0.4551,0.0000
0.7340,0.4557,0.0000
0.7350,0.4570,0.0000
0.7360,0.4583,0.0000
0.7370,0.4589,0.0000
0.7380,0.4597,0.0000
0.7390,0.4610,0.0000
0.7400,0.4616,0.0000
0.7410,0.4630,0.0000
0.7420,0.4636,0.0000
0.7430,0.4643,0.0000
0.7440,0.4657,0.0000
0.7450,0.4670,0.0000
0.7460,0.4672,0.0000
0.7470,0.4685,0.0000
0.7480,0.4692,0.0000
0.7490,0.4706,0.0000
0.7500,0.4713,0.0000
0.7510,0.4719,0.0000
0.7520,0.4732,0.0000
0.7530,0.4733,0.0000
0.7540,0.4746,0.0000
0.7550,0.4753,0.0000
0.7560,0.4759,0.0000
0.7570,0.4766,0.0000
0.7580,0.4779,0.0000
0.7590,0.4779,0.0000
0.7600,0.4785,0.0000
0.7610,0.4793,0.0000
0.7620,0.4793,0.0000
0.7630,0.4806,0.0000
0.7640,0.4813,0.0000
0.7650,0.4819,0.0000
0.7660,0.4826,0.0000
0.7670,0.4832,0.0000
0.7680,0.4833,0.0000
0.7690,0.4833,0.0000
0.7700,0.4847,0.0000
0.7710,0.4847,0.0000
0.7720,0.4861,0.0000
0.7730,0.4861,0.0000
0.7740,0.4868,0.0000
0.7750,0.4869,0.0000
0.7760,0.4870,0.0000
0.7770,0.4877,0.0000
0.7780,0.4878,0.0000
0.7790,0.4885,0.0000
0.7800,0.4886,0.0000
0.7810,0.4892,0.0000
0.7820,0.4892,0.0000
0.7830,0.4893,0.0000
0.7840,0.4893,0.0000
0.7850,0.4900,0.0000
0.7860,0.4900,0.0000
0.7870,0.4907,0.0000
0.7880,0.4907,0.0000
0.7890,0.4907,0.0000
0.7900,0.4907,0.0000
0.7910,0.4914,0.0000
0.7920,0.4914,0.0000
0.7930,0.4914,0.0000
0.7940,0.4914,0.0000
0.7950,0.4921,0.0000
0.7960,0.4921,0.0000
0.7970,0.4921,0.0000
0.7980,0.4928,0.0000
0.7990,0.4929,0.0000
0.8000,0.4929,0.0000
0.8010,0.4929,0.0000
0.8020,0.4929,0.0000
0.8030,0.4935,0.0000
0.8040,0.4935,0.0000
0.8050,0.4935,0.0000
0.8060,0.4943,0.0000
0.8070,0.4943,0.0000
0.8080,0.4943,0.0000
0.8090,0.4943,0.0000
0.8100,0.4950,0.0000
0.8110,0.4950,0.0000
0.8120,0.4951,0.0000
0.8130,0.4951,0.0000
0.8140,0.4953,0.0000
0.8150,0.4953,0.0000
0.8160,0.4954,0.0000
0.8170,0.4954,0.0000
0.8180,0.4955,0.0000
0.8190,0.4962,0.0000
0.8200,0.4963,0.0000
0.8210,0.4964,0.0000
0.8220,0.4964,0.0000
0.8230,0.4970,0.0000
0.8240,0.4970,0.0000
0.8250,0.4970,0.0000
0.8260,0.4970,0.0000
0.8270,0.4970,0.0000
0.8280,0.4977,0.0000
0.8290,0.4972,0.0000
0.8300,0.4972,0.0000
0.8310,0.4978,0.0000
0.8320,0.4985,0.0000
0.8330,0.4985,0.0000
0.8340,0.4985,0.0000
0.8350,0.4991,0.0000
0.8360,0.4991,0.0000
0.8370,0.4993,0.0000
0.8380,0.4993,0.0000
0.8390,0.4999,0.0000
0.8400,0.4999,0.0000
0.8410,0.5000,0.0000
0.8420,0.5008,0.0000
0.8430,0.5015,0.0000
0.8440,0.5011,0.0000
0.8450,0.5012,0.0000
0.8460,0.5026,0.0000
0.8470,0.5027,0.0000
0.8480,0.5028,0.0000
0.8490,0.5029,0.0000
0.8500,0.5044,0.0000
0.8510,0.5044,0.0000
0.8520,0.5038,0.0000
0.8530,0.5045,0.0000
0.8540,0.5051,0.0000
0.8550,0.5051,0.0000
0.8560,0.5051,0.0000
0.8570,0.5058,0.0000
0.8580,0.5065,0.0000
0.8590,0.5059,0.0000
0.8600,0.5066,0.0000
0.8610,0.5066,0.0000
0.8620,0.5072,0.0000
0.8630,0.5079,0.0000
0.8640,0.5079,0.0000
0.8650,0.5079,0.0000
0.8660,0.5092,0.0000
0.8670,0.5087,0.0000
0.8680,0.5087,0.0000
0.8690,0.5094,0.0000
0.8700,0.5094,0.0000
0.8710,0.5101,0.0000
0.8720,0.5108,0.0000
0.8730,0.5109,0.0000
0.8740,0.5109,0.0000
0.8750,0.5111,0.0000
0.8760,0.5111,0.0000
0.8770,0.5118,0.0000
0.8780,0.5126,0.0000
0.8790,0.5126,0.0000
0.8800,0.5127,0.0000
0.8810,0.5133,0.0000
0.8820,0.5128,0.0000
0.8830,0.5128,0.0000
0.8840,0.5134,0.0000
0.8850,0.5141,0.0000
0.8860,0.5141,0.0000
0.8870,0.5148,0.0000
0.8880,0.5148,0.0000
0.8890,0.5148,0.0000
0.8900,0.5142,0.0000
0.8910,0.5149,0.0000
0.8920,0.5149,0.0000
0.8930,0.5149,0.0000
0.8940,0.5156,0.0000
0.8950,0.5156,0.0000
0.8960,0.5156,0.0000
0.8970,0.5156,0.0000
0.8980,0.5150,0.0000
0.8990,0.5157,0.0000
0.9000,0.5157,0.0000
0.9010,0.5157,0.0000
0.9020,0.5157,0.0000
0.9030,0.5163,0.0000
0.9040,0.5163,0.0000
0.9050,0.5163,0.0000
0.9060,0.5169,0.0000
0.9070,0.5169,0.0000
0.9080,0.5169,0.0000
0.9090,0.5176,0.0000
0.9100,0.5176,0.0000
0.9110,0.5176,0.0000
0.9120,0.5177,0.0000
0.9130,0.5177,0.0000
0.9140,0.5178,0.0000
0.9150,0.5178,0.0000
0.9160,0.5179,0.0000
0.9170,0.5179,0.0000
0.9180,0.5180,0.0000
0.9190,0.5186,0.0000
0.9200,0.5187,0.0000
0.9210,0.5187,0.0000
0.9220,0.5187,0.0000
0.9230,0.5187,0.0000
0.9240,0.5187,0.0000
0.9250,0.5187,0.0000
0.9260,0.5187,0.0000
0.9270,0.5180,0.0000
0.9280,0.5180,0.0000
0.9290,0.5180,0.0000
0.9300,0.5180,0.0000
0.9310,0.5180,0.0000
0.9320,0.5186,0.0000
0.9330,0.5179,0.0000
0.9340,0.5179,0.0000
0.9350,0.5179,0.0000
0.9360,0.5179,0.0000
0.9370,0.5172,0.0000
0.9380,0.5165,0.0000
0.9390,0.5165,0.0000
0.9400,0.5165,0.0000
0.9410,0.5165,0.0000
0.9420,0.5165,0.0000
0.9430,0.5159,0.0000
0.9440,0.5159,0.0000
0.9450,0.5159,0.0000
0.9460,0.5158,0.0000
0.9470,0.5158,0.0000
0.9480,0.5158,0.0000
0.9490,0.5151,0.0000
0.9500,0.5151,0.0000
0.9510,0.5151,0.0000
0.9520,0.5151,0.0000
0.9530,0.5144,0.0000
0.9540,0.5137,0.0000
0.9550,0.5137,0.0000
0.9560,0.5137,0.0000
0.9570,0.5137,0.0000
0.9580,0.5137,0.0000
0.9590,0.5143,0.0000
0.9600,0.5130,0.0000
0.9610,0.5130,0.0000
0.9620,0.5130,0.0000
0.9630,0.5130,0.0000
0.9640,0.5130,0.0000
0.9650,0.5130,0.0000
0.9660,0.5123,0.0000
0.9670,0.5116,0.0000
0.9680,0.5116,0.0000
0.9690,0.5116,0.0000
0.9700,0.5116,0.0000
0.9710,0.5117,0.0000
0.9720,0.5116,0.0000
0.9730,0.5117,0.0000
0.9740,0.5117,0.0000
0.9750,0.5118,0.0000
0.9760,0.5118,0.0000
0.9770,0.5112,0.0000
0.9780,0.5113,0.0000
0.9790,0.5106,0.0000
0.9800,0.5107,0.0000
0.9810,0.5107,0.0000
0.9820,0.5107,0.0000
0.9830,0.5107,0.0000
0.9840,0.5107,0.0000
0.9850,0.5107,0.0000
0.9860,0.5106,0.0000
0.9870,0.5106,0.0000
0.9880,0.5106,0.0000
0.9890,0.5106,0.0000
0.9900,0.5106,0.0000
0.9910,0.5106,0.0000
0.9920,0.5106,0.0000
0.9930,0.5106,0.0000
0.9940,0.5106,0.0000
0.9950,0.5099,0.0000
0.9960,0.5099,0.0000
0.9970,0.5099,0.0000
0.9980,0.5099,0.0000
0.9990,0.5105,0.0000
1.0000,0.5105,0.0000
1.0010,0.5105,0.0000
1.0020,0.5105,0.0000
1.0030,0.5105,0.0000
1.0040,0.5105,0.0000
1.0050,0.5105,0.0000
1.0060,0.5105,0.0000
1.0070,0.5098,0.0000
1.0080,0.5098,0.0000
1.0090,0.5098,0.0000
1.0100,0.5098,0.0000
1.0110,0.5098,0.0000
1.0120,0.5110,0.0000
1.0130,0.5110,0.0000
1.0140,0.5110,0.0000
1.0150,0.5110,0.0000
1.0160,0.5110,0.0000
1.0170,0.5110,0.0000
1.0180,0.5110,0.0000
1.0190,0.5117,0.0000
1.0200,0.5117,0.0000
1.0210,0.5117,0.0000
1.0220,0.5124,0.0000
1.0230,0.5124,0.0000
1.0240,0.5130,0.0000
1.0250,0.5130,0.0000
1.0260,0.5136,0.0000
1.0270,0.5136,0.0000
1.0280,0.5136,0.0000
1.0290,0.5143,0.0000
1.0300,0.5143,0.0000
1.0310,0.5143,0.0000
1.0320,0.5150,0.0000
1.0330,0.5158,0.0000
1.0340,0.5158,0.0000
1.0350,0.5159,0.0000
1.0360,0.5159,0.0000
1.0370,0.5167,0.0000
1.0380,0.5167,0.0000
1.0390,0.5180,0.0000
1.0400,0.5181,0.0000
1.0410,0.5187,0.0000
1.0420,0.5187,0.0000
1.0430,0.5187,0.0000
1.0440,0.5187,0.0000
1.0450,0.5201,0.0000
1.0460,0.5201,0.0000
1.0470,0.5201,0.0000
1.0480,0.5208,0.0000
1.0490,0.5208,0.0000
1.0500,0.5208,0.0000
1.0510,0.5214,0.0000
1.0520,0.5227,0.0000
1.0530,0.5227,0.0000
1.0540,0.5227,0.0000
1.0550,0.5240,0.0000
1.0560,0.5240,0.0000
1.0570,0.5240,0.0000
1.0580,0.5240,0.0000
1.0590,0.5247,0.0000
1.0600,0.5254,0.0000
1.0610,0.5254,0.0000
1.0620,0.5261,0.0000
1.0630,0.5261,0.0000
1.0640,0.5268,0.0000
1.0650,0.5268,0.0000
1.0660,0.5280,0.0000
1.0670,0.5280,0.0000
1.0680,0.5287,0.0000
1.0690,0.5294,0.0000
1.0700,0.5294,0.0000
1.0710,0.5294,0.0000
1.0720,0.5308,0.0000
1.0730,0.5308,0.0000
1.0740,0.5308,0.0000
1.0750,0.5308,0.0000
1.0760,0.5321,0.0000
1.0770,0.5321,0.0000
1.0780,0.5321,0.0000
1.0790,0.5341,0.0000
1.0800,0.5341,0.0000
1.0810,0.5341,0.0000
1.0820,0.5348,0.0000
1.0830,0.5355,0.0000
1.0840,0.5355,0.0000
1.0850,0.5355,0.0000
1.0860,0.5361,0.0000
1.0870,0.5368,0.0000
1.0880,0.5368,0.0000
1.0890,0.5375,0.0000
1.0900,0.5382,0.0000
1.0910,0.5382,0.0000
1.0920,0.5388,0.0000
1.0930,0.5395,0.0000
1.0940,0.5402,0.0000
1.0950,0.5402,0.0000
1.0960,0.5409,0.0000
1.0970,0.5416,0.0000
1.0980,0.5416,0.0000
1.0990,0.5416,0.0000
1.1000,0.5423,0.0000
1.1010,0.5430,0.0000
1.1020,0.5431,0.0000
1.1030,0.5431,0.0000
1.1040,0.5446,0.0000
1.1050,0.5452,0.0000
1.1060,0.5453,0.0000
1.1070,0.5453,0.0000
1.1080,0.5468,0.0000
1.1090,0.5468,0.0000
1.1100,0.5469,0.0000
1.1110,0.5476,0.0000
1.1120,0.5483,0.0000
1.1130,0.5483,0.0000
1.1140,0.5483,0.0000
1.1150,0.5490,0.0000
1.1160,0.5497,0.0000
1.1170,0.5497,0.0000
1.1180,0.5504,0.0000
1.1190,0.5510,0.0000
1.1200,0.5517,0.0000
1.1210,0.5517,0.0000
1.1220,0.5524,0.0000
1.1230,0.5524,0.0000
1.1240,0.5524,0.0000
1.1250,0.5531,0.0000
1.1260,0.5538,0.0000
1.1270,0.5538,0.0000
1.1280,0.5538,0.0000
1.1290,0.5538,0.0000
1.1300,0.5552,0.0000
1.1310,0.5552,0.0000
1.1320,0.5558,0.0000
1.1330,0.5558,0.0000
1.1340,0.5565,0.0000
1.1350,0.5572,0.0000
1.1360,0.5572,0.0000
1.1370,0.5572,0.0000
1.1380,0.5579,0.0000
1.1390,0.5579,0.0000
1.1400,0.5579,0.0000
1.1410,0.5586,0.0000
1.1420,0.5593,0.0000
1.1430,0.5593,0.0000
1.1440,0.5593,0.0000
1.1450,0.5599,0.0000
1.1460,0.5599,0.0000
1.1470,0.5606,0.0000
1.1480,0.5613,0.0000
1.1490,0.5613,0.0000
1.1500,0.5613,0.0000
1.1510,0.5613,0.0000
1.1520,0.5620,0.0000
1.1530,0.5620,0.0000
1.1540,0.5620,0.0000
1.1550,0.5627,0.0000
1.1560,0.5627,0.0000
1.1570,0.5634,0.0000
1.1580,0.5634,0.0000
1.1590,0.5634,0.0000
1.1600,0.5640,0.0000
1.1610,0.5640,0.0000
1.1620,0.5647,0.0000
1.1630,0.5647,0.0000
1.1640,0.5655,0.0000
1.1650,0.5655,0.0000
1.1660,0.5655,0.0000
1.1670,0.5655,0.0000
1.1680,0.5662,0.0000
1.1690,0.5662,0.0000
1.1700,0.5662,0.0000
1.1710,0.5662,0.0000
1.1720,0.5662,0.0000
1.1730,0.5662,0.0000
1.1740,0.5662,0.0000
1.1750,0.5676,0.0000
1.1760,0.5676,0.0000
1.1770,0.5682,0.0000
1.1780,0.5682,0.0000
1.1790,0.5682,0.0000
1.1800,0.5682,0.0000
1.1810,0.5682,0.0000
1.1820,0.5689,0.0000
1.1830,0.5689,0.0000
1.1840,0.5689,0.0000
1.1850,0.5689,0.0000
1.1860,0.5689,0.0000
1.1870,0.5689,0.0000
1.1880,0.5689,0.0000
1.1890,0.5689,0.0000
1.1900,0.5696,0.0000
1.1910,0.5704,0.0000
1.1920,0.5705,0.0000
1.1930,0.5711,0.0000
1.1940,0.5712,0.0000
1.1950,0.5712,0.0000
1.1960,0.5713,0.0000
1.1970,0.5714,0.0000
1.1980,0.5714,0.0000
1.1990,0.5715,0.0000
1.2000,0.5715,0.0000
1.2010,0.5722,0.0000
1.2020,0.5722,0.0000
1.2030,0.5722,0.0000
1.2040,0.5722,0.0000
1.2050,0.5722,0.0000
1.2060,0.5722,0.0000
1.2070,0.5722,0.0000
1.2080,0.5722,0.0000
1.2090,0.5729,0.0000
1.2100,0.5729,0.0000
1.2110,0.5729,0.0000
1.2120,0.5729,0.0000
1.2130,0.5729,0.0000
1.2140,0.5729,0.0000
1.2150,0.5729,0.0000
1.2160,0.5729,0.0000
1.2170,0.5729,0.0000
1.2180,0.5729,0.0000
1.2190,0.5729,0.0000
1.2200,0.5729,0.0000
1.2210,0.5729,0.0000
1.2220,0.5736,0.0000
1.2230,0.5736,0.0000
1.2240,0.5736,0.0000
1.2250,0.5736,0.0000
1.2260,0.5742,0.0000
1.2270,0.5742,0.0000
1.2280,0.5742,0.0000
1.2290,0.5742,0.0000
1.2300,0.5742,0.0000
1.2310,0.5742,0.0000
1.2320,0.5742,0.0000
1.2330,0.5742,0.0000
1.2340,0.5742,0.0000
1.2350,0.5742,0.0000
1.2360,0.5742,0.0000
1.2370,0.5749,0.0000
1.2380,0.5749,0.0000
1.2390,0.5749,0.0000
1.2400,0.5749,0.0000
1.2410,0.5749,0.0000
1.2420,0.5755,0.0000
1.2430,0.5755,0.0000
1.2440,0.5755,0.0000
1.2450,0.5755,0.0000
1.2460,0.5755,0.0000
1.2470,0.5755,0.0000
1.2480,0.5755,0.0000
1.2490,0.5755,0.0000
1.2500,0.5755,0.0000
1.2510,0.5755,0.0000
1.2520,0.5755,0.0000
1.2530,0.5755,0.0000
1.2540,0.5755,0.0000
1.2550,0.5755,0.0000
1.2560,0.5755,0.0000
1.2570,0.5755,0.0000
1.2580,0.5755,0.0000
1.2590,0.5761,0.0000
1.2600,0.5761,0.0000
1.2610,0.5761,0.0000
1.2620,0.5761,0.0000
1.2630,0.5761,0.0000
1.2640,0.5761,0.0000
1.2650,0.5761,0.0000
1.2660,0.5761,0.0000
1.2670,0.5761,0.0000
1.2680,0.5761,0.0000
1.2690,0.5761,0.0000
1.2700,0.5761,0.0000
1.2710,0.5761,0.0000
1.2720,0.5761,0.0000
1.2730,0.5761,0.0000
1.2740,0.5761,0.0000
1.2750,0.5767,0.0000
1.2760,0.5767,0.0000
1.2770,0.5767,0.0000
1.2780,0.5767,0.0000
1.2790,0.5767,0.0000
1.2800,0.5767,0.0000
1.2810,0.5775,0.0000
1.2820,0.5775,0.0000
1.2830,0.5775,0.0000
1.2840,0.5775,0.0000
1.2850,0.5775,0.0000
1.2860,0.5775,0.0000
1.2870,0.5775,0.0000
1.2880,0.5775,0.0000
1.2890,0.5775,0.0000
1.2900,0.5775,0.0000
1.2910,0.5775,0.0000
1.2920,0.5782,0.0000
1.2930,0.5790,0.0000
1.2940,0.5790,0.0000
1.2950,0.5791,0.0000
1.2960,0.5792,0.0000
1.2970,0.5792,0.0000
1.2980,0.5793,0.0000
1.2990,0.5801,0.0000
1.3000,0.5801,0.0000
1.3010,0.5801,0.0000
1.3020,0.5801,0.0000
1.3030,0.5801,0.0000
1.3040,0.5801,0.0000
1.3050,0.5801,0.0000
1.3060,0.5801,0.0000
1.3070,0.5801,0.0000
1.3080,0.5807,0.0000
1.3090,0.5807,0.0000
1.3100,0.5807,0.0000
1.3110,0.5807,0.0000
1.3120,0.5807,0.0000
1.3130,0.5815,0.0000
1.3140,0.5815,0.0000
1.3150,0.5815,0.0000
1.3160,0.5815,0.0000
1.3170,0.5815,0.0000
1.3180,0.5815,0.0000
1.3190,0.5815,0.0000
1.3200,0.5815,0.0000
1.3210,0.5815,0.0000
1.3220,0.5815,0.0000
1.3230,0.5815,0.0000
1.3240,0.5828,0.0000
1.3250,0.5835,0.0000
1.3260,0.5835,0.0000
1.3270,0.5835,0.0000
1.3280,0.5835,0.0000
1.3290,0.5835,0.0000
1.3300,0.5835,0.0000
1.3310,0.5835,0.0000
1.3320,0.5835,0.0000
1.3330,0.5835,0.0000
1.3340,0.5835,0.0000
1.3350,0.5843,0.0000
1.3360,0.5843,0.0000
1.3370,0.5843,0.0000
1.3380,0.5843,0.0000
1.3390,0.5843,0.0000
1.3400,0.5843,0.0000
1.3410,0.5849,0.0000
1.3420,0.5849,0.0000
1.3430,0.5849,0.0000
1.3440,0.5849,0.0000
1.3450,0.5849,0.0000
1.3460,0.5856,0.0000
1.3470,0.5856,0.0000
1.3480,0.5856,0.0000
1.3490,0.5856,0.0000
1.3500,0.5856,0.0000
1.3510,0.5863,0.0000
1.3520,0.5863,0.0000
1.3530,0.5863,0.0000
1.3540,0.5863,0.0000
1.3550,0.5863,0.0000
1.3560,0.5871,0.0000
1.3570,0.5877,0.0000
1.3580,0.5877,0.0000
1.3590,0.5877,0.0000
1.3600,0.5877,0.0000
1.3610,0.5877,0.0000
1.3620,0.5877,0.0000
1.3630,0.5877,0.0000
1.3640,0.5877,0.0000
1.3650,0.5884,0.0000
1.3660,0.5884,0.0000
1.3670,0.5884,0.0000
1.3680,0.5884,0.0000
1.3690,0.5884,0.0000
1.3700,0.5891,0.0000
1.3710,0.5891,0.0000
1.3720,0.5891,0.0000
1.3730,0.5898,0.0000
1.3740,0.5905,0.0000
1.3750,0.5905,0.0000
1.3760,0.5905,0.0000
1.3770,0.5905,0.0000
1.3780,0.5905,0.0000
1.3790,0.5905,0.0000
1.3800,0.5905,0.0000
1.3810,0.5905,0.0000
1.3820,0.5912,0.0000
1.3830,0.5912,0.0000
1.3840,0.5912,0.0000
1.3850,0.5920,0.0000
1.3860,0.5920,0.0000
1.3870,0.5920,0.0000
1.3880,0.5920,0.0000
1.3890,0.5920,0.0000
1.3900,0.5933,0.0000
1.3910,0.5933,0.0000
1.3920,0.5933,0.0000
1.3930,0.5933,0.0000
1.3940,0.5933,0.0000
1.3950,0.5933,0.0000
1.3960,0.5933,0.0000
1.3970,0.5933,0.0000
1.3980,0.5948,0.0000
1.3990,0.5948,0.0000
1.4000,0.5948,0.0000
1.4010,0.5948,0.0000
1.4020,0.5948,0.0000
1.4030,0.5948,0.0000
1.4040,0.5948,0.0000
1.4050,0.5948,0.0000
1.4060,0.5955,0.0000
1.4070,0.5955,0.0000
1.4080,0.5955,0.0000
1.4090,0.5955,0.0000
1.4100,0.5963,0.0000
1.4110,0.5963,0.0000
1.4120,0.5963,0.0000
1.4130,0.5963,0.0000
1.4140,0.5970,0.0000
1.4150,0.5970,0.0000
1.4160,0.5970,0.0000
1.4170,0.5970,0.0000
1.4180,0.5970,0.0000
1.4190,0.5970,0.0000
1.4200,0.5970,0.0000
1.4210,0.5978,0.0000
1.4220,0.5986,0.0000
1.4230,0.5986,0.0000
1.4240,0.5987,0.0000
1.4250,0.5988,0.0000
1.4260,0.5988,0.0000
1.4270,0.5989,0.0000
1.4280,0.5989,0.0000
1.4290,0.5990,0.0000
1.4300,0.5998,0.0000
1.4310,0.6005,0.0000
1.4320,0.6005,0.0000
1.4330,0.6005,0.0000
1.4340,0.6005,0.0000
1.4350,0.6005,0.0000
1.4360,0.6005,0.0000
1.4370,0.6005,0.0000
1.4380,0.6005,0.0000
1.4390,0.6013,0.0000
1.4400,0.6013,0.0000
1.4410,0.6013,0.0000
1.4420,0.6020,0.0000
1.4430,0.6020,0.0000
1.4440,0.6020,0.0000
1.4450,0.6020,0.0000
1.4460,0.6020,0.0000
1.4470,0.6028,0.0000
1.4480,0.6028,0.0000
1.4490,0.6028,0.0000
1.4500,0.6028,0.0000
1.4510,0.6028,0.0000
1.4520,0.6035,0.0000
1.4530,0.6035,0.0000
1.4540,0.6035,0.0000
1.4550,0.6035,0.0000
1.4560,0.6042,0.0000
1.4570,0.6042,0.0000
1.4580,0.6042,0.0000
1.4590,0.6042,0.0000
1.4600,0.6042,0.0000
1.4610,0.6042,0.0000
1.4620,0.6042,0.0000
1.4630,0.6050,0.0000
1.4640,0.6050,0.0000
1.4650,0.6057,0.0000
1.4660,0.6057,0.0000
1.4670,0.6057,0.0000
1.4680,0.6057,0.0000
1.4690,0.6057,0.0000
1.4700,0.6057,0.0000
1.4710,0.6057,0.0000
1.4720,0.6057,0.0000
1.4730,0.6065,0.0000
1.4740,0.6065,0.0000
1.4750,0.6072,0.0000
1.4760,0.6072,0.0000
1.4770,0.6072,0.0000
1.4780,0.6072,0.0000
1.4790,0.6072,0.0000
1.4800,0.6072,0.0000
1.4810,0.6072,0.0000
1.4820,0.6072,0.0000
1.4830,0.6072,0.0000
1.4840,0.6080,0.0000
1.4850,0.6080,0.0000
1.4860,0.6087,0.0000
1.4870,0.6087,0.0000
1.4880,0.6087,0.0000
1.4890,0.6087,0.0000
1.4900,0.6087,0.0000
1.4910,0.6087,0.0000
1.4920,0.6087,0.0000
1.4930,0.6087,0.0000
1.4940,0.6087,0.0000
1.4950,0.6094,0.0000
1.4960,0.6094,0.0000
1.4970,0.6094,0.0000
1.4980,0.6102,0.0000
1.4990,0.6102,0.0000
1.5000,0.6102,0.0000
1.5010,0.6102,0.0000
1.5020,0.6102,0.0000
1.5030,0.6102,0.0000
1.5040,0.6102,0.0000
1.5050,0.6102,0.0000
1.5060,0.6109,0.0000
1.5070,0.6109,0.0000
1.5080,0.6109,0.0000
1.5090,0.6109,0.0000
1.5100,0.6109,0.0000
1.5110,0.6117,0.0000
1.5120,0.6117,0.0000
1.5130,0.6117,0.0000
1.5140,0.6117,0.0000
1.5150,0.6117,0.0000
1.5160,0.6117,0.0000
1.5170,0.6117,0.0000
1.5180,0.6117,0.0000
1.5190,0.6124,0.0000
1.5200,0.6124,0.0000
1.5210,0.6124,0.0000
1.5220,0.6124,0.0000
1.5230,0.6124,0.0000
1.5240,0.6124,0.0000
1.5250,0.6124,0.0000
1.5260,0.6124,0.0000
1.5270,0.6132,0.0000
1.5280,0.6132,0.0000
1.5290,0.6132,0.0000
1.5300,0.6132,0.0000
1.5310,0.6132,0.0000
1.5320,0.6139,0.0000
1.5330,0.6139,0.0000
1.5340,0.6139,0.0000
1.5350,0.6139,0.0000
1.5360,0.6139,0.0000
1.5370,0.6139,0.0000
1.5380,0.6139,0.0000
1.5390,0.6139,0.0000
1.5400,0.6139,0.0000
1.5410,0.6139,0.0000
1.5420,0.6139,0.0000
1.5430,0.6139,0.0000
1.5440,0.6139,0.0000
1.5450,0.6139,0.0000
1.5460,0.6139,0.0000
1.5470,0.6147,0.0000
1.5480,0.6147,0.0000
1.5490,0.6154,0.0000
1.5500,0.6154,0.0000
1.5510,0.6154,0.0000
1.5520,0.6154,0.0000
1.5530,0.6154,0.0000
1.5540,0.6154,0.0000
1.5550,0.6154,0.0000
1.5560,0.6154,0.0000
1.5570,0.6154,0.0000
1.5580,0.6154,0.0000
1.5590,0.6154,0.0000
1.5600,0.6154,0.0000
1.5610,0.6154,0.0000
1.5620,0.6154,0.0000
1.5630,0.6154,0.0000
1.5640,0.6162,0.0000
1.5650,0.6162,0.0000
1.5660,0.6162,0.0000
1.5670,0.6162,0.0000
1.5680,0.6162,0.0000
1.5690,0.6162,0.0000
1.5700,0.6162,0.0000
1.5710,0.6162,0.0000
1.5720,0.6162,0.0000
1.5730,0.6162,0.0000
1.5740,0.6162,0.0000
1.5750,0.6162,0.0000
1.5760,0.6162,0.0000
1.5770,0.6162,0.0000
1.5780,0.6162,0.0000
1.5790,0.6162,0.0000
1.5800,0.6162,0.0000
1.5810,0.6162,0.0000
1.5820,0.6163,0.0000
1.5830,0.6163,0.0000
1.5840,0.6164,0.0000
1.5850,0.6165,0.0000
1.5860,0.6173,0.0000
1.5870,0.6173,0.0000
1.5880,0.6174,0.0000
1.5890,0.6175,0.0000
1.5900,0.6175,0.0000
1.5910,0.6175,0.0000
1.5920,0.6175,0.0000
1.5930,0.6175,0.0000
1.5940,0.6175,0.0000
1.5950,0.6175,0.0000
1.5960,0.6175,0.0000
1.5970,0.6175,0.0000
1.5980,0.6175,0.0000
1.5990,0.6175,0.0000
1.6000,0.6175,0.0000
1.6010,0.6175,0.0000
1.6020,0.6175,0.0000
1.6030,0.6175,0.0000
1.6040,0.6175,0.0000
1.6050,0.6175,0.0000
1.6060,0.6175,0.0000
1.6070,0.6175,0.0000
1.6080,0.6175,0.0000
1.6090,0.6175,0.0000
1.6100,0.6175,0.0000
1.6110,0.6175,0.0000
1.6120,0.6175,0.0000
1.6130,0.6175,0.0000
1.6140,0.6175,0.0000
1.6150,0.6183,0.0000
1.6160,0.6183,0.0000
1.6170,0.6183,0.0000
1.6180,0.6183,0.0000
1.6190,0.6183,0.0000
1.6200,0.6183,0.0000
1.6210,0.6183,0.0000
1.6220,0.6183,0.0000
1.6230,0.6183,0.0000
1.6240,0.6183,0.0000
1.6250,0.6183,0.0000
1.6260,0.6183,0.0000
1.6270,0.6183,0.0000
1.6280,0.6183,0.0000
1.6290,0.6183,0.0000
1.6300,0.6183,0.0000
1.6310,0.6183,0.0000
1.6320,0.6183,0.0000
1.6330,0.6183,0.0000
1.6340,0.6183,0.0000
1.6350,0.6183,0.0000
1.6360,0.6183,0.0000
1.6370,0.6183,0.0000
1.6380,0.6183,0.0000
1.6390,0.6183,0.0000
1.6400,0.6183,0.0000
1.6410,0.6183,0.0000
1.6420,0.6183,0.0000
1.6430,0.6183,0.0000
1.6440,0.6183,0.0000
1.6450,0.6183,0.0000
1.6460,0.6183,0.0000
1.6470,0.6183,0.0000
1.6480,0.6183,0.0000
1.6490,0.6183,0.0000
1.6500,0.6183,0.0000
1.6510,0.6183,0.0000
1.6520,0.6183,0.0000
1.6530,0.6183,0.0000
1.6540,0.6183,0.0000
1.6550,0.6183,0.0000
1.6560,0.6183,0.0000
1.6570,0.6183,0.0000
1.6580,0.6183,0.0000
1.6590,0.6183,0.0000
1.6600,0.6189,0.0000
1.6610,0.6189,0.0000
1.6620,0.6189,0.0000
1.6630,0.6189,0.0000
1.6640,0.6189,0.0000
1.6650,0.6189,0.0000
1.6660,0.6189,0.0000
1.6670,0.6189,0.0000
1.6680,0.6189,0.0000
1.6690,0.6189,0.0000
1.6700,0.6189,0.0000
1.6710,0.6189,0.0000
1.6720,0.6189,0.0000
1.6730,0.6182,0.0000
1.6740,0.6182,0.0000
1.6750,0.6182,0.0000
1.6760,0.6182,0.0000
1.6770,0.6182,0.0000
1.6780,0.6182,0.0000
1.6790,0.6182,0.0000
1.6800,0.6182,0.0000
1.6810,0.6182,0.0000
1.6820,0.6182,0.0000
1.6830,0.6182,0.0000
1.6840,0.6182,0.0000
1.6850,0.6182,0.0000
1.6860,0.6182,0.0000
1.6870,0.6182,0.0000
1.6880,0.6182,0.0000
1.6890,0.6182,0.0000
1.6900,0.6189,0.0000
1.6910,0.6189,0.0000
1.6920,0.6189,0.0000
1.6930,0.6189,0.0000
1.6940,0.6189,0.0000
1.6950,0.6189,0.0000
1.6960,0.6189,0.0000
1.6970,0.6189,0.0000
1.6980,0.6189,0.0000
1.6990,0.6189,0.0000
1.7000,0.6189,0.0000
1.7010,0.6189,0.0000
1.7020,0.6189,0.0000
1.7030,0.6189,0.0000
1.7040,0.6189,0.0000
1.7050,0.6189,0.0000
1.7060,0.6196,0.0000
1.7070,0.6196,0.0000
1.7080,0.6196,0.0000
1.7090,0.6196,0.0000
1.7100,0.6196,0.0000
1.7110,0.6196,0.0000
1.7120,0.6196,0.0000
1.7130,0.6196,0.0000
1.7140,0.6196,0.0000
1.7150,0.6196,0.0000
1.7160,0.6196,0.0000
1.7170,0.6196,0.0000
1.7180,0.6196,0.0000
1.7190,0.6196,0.0000
1.7200,0.6196,0.0000
1.7210,0.6196,0.0000
1.7220,0.6196,0.0000
1.7230,0.6196,0.0000
1.7240,0.6196,0.0000
1.7250,0.6196,0.0000
1.7260,0.6196,0.0000
1.7270,0.6196,0.0000
1.7280,0.6196,0.0000
1.7290,0.6196,0.0000
1.7300,0.6196,0.0000
1.7310,0.6196,0.0000
1.7320,0.6196,0.0000
1.7330,0.6196,0.0000
1.7340,0.6196,0.0000
1.7350,0.6196,0.0000
1.7360,0.6196,0.0000
1.7370,0.6188,0.0000
1.7380,0.6188,0.0000
1.7390,0.6188,0.0000
1.7400,0.6188,0.0000
1.7410,0.6188,0.0000
1.7420,0.6188,0.0000
1.7430,0.6188,0.0000
1.7440,0.6188,0.0000
1.7450,0.6188,0.0000
1.7460,0.6188,0.0000
1.7470,0.6188,0.0000
1.7480,0.6188,0.0000
1.7490,0.6188,0.0000
1.7500,0.6188,0.0000
1.7510,0.6188,0.0000
1.7520,0.6195,0.0000
1.7530,0.6195,0.0000
1.7540,0.6195,0.0000
1.7550,0.6195,0.0000
1.7560,0.6195,0.0000
1.7570,0.6195,0.0000
1.7580,0.6195,0.0000
1.7590,0.6195,0.0000
1.7600,0.6195,0.0000
1.7610,0.6195,0.0000
1.7620,0.6195,0.0000
1.7630,0.6195,0.0000
1.7640,0.6195,0.0000
1.7650,0.6195,0.0000
1.7660,0.6195,0.0000
1.7670,0.6195,0.0000
1.7680,0.6195,0.0000
1.7690,0.6195,0.0000
1.7700,0.6195,0.0000
1.7710,0.6195,0.0000
1.7720,0.6195,0.0000
1.7730,0.6195,0.0000
1.7740,0.6195,0.0000
1.7750,0.6195,0.0000
1.7760,0.6195,0.0000
1.7770,0.6195,0.0000
1.7780,0.6195,0.0000
1.7790,0.6195,0.0000
1.7800,0.6195,0.0000
1.7810,0.6195,0.0000
1.7820,0.6195,0.0000
1.7830,0.6195,0.0000
1.7840,0.6195,0.0000
1.7850,0.6195,0.0000
1.7860,0.6195,0.0000
1.7870,0.6195,0.0000
1.7880,0.6195,0.0000
1.7890,0.6195,0.0000
1.7900,0.6195,0.0000
1.7910,0.6195,0.0000
1.7920,0.6195,0.0000
1.7930,0.6195,0.0000
1.7940,0.6195,0.0000
1.7950,0.6195,0.0000
1.7960,0.6195,0.0000
1.7970,0.6201,0.0000
1.7980,0.6201,0.0000
1.7990,0.6201,0.0000
1.8000,0.6201,0.0000
1.8010,0.6202,0.0000
1.8020,0.6203,0.0000
1.8030,0.6203,0.0000
1.8040,0.6204,0.0000
1.8050,0.6205,0.0000
1.8060,0.6205,0.0000
1.8070,0.6213,0.0000
1.8080,0.6214,0.0000
1.8090,0.6215,0.0000
1.8100,0.6215,0.0000
1.8110,0.6215,0.0000
1.8120,0.6215,0.0000
1.8130,0.6215,0.0000
1.8140,0.6223,0.0000
1.8150,0.6223,0.0000
1.8160,0.6223,0.0000
1.8170,0.6223,0.0000
1.8180,0.6223,0.0000
1.8190,0.6223,0.0000
1.8200,0.6223,0.0000
1.8210,0.6223,0.0000
1.8220,0.6223,0.0000
1.8230,0.6223,0.0000
1.8240,0.6223,0.0000
1.8250,0.6223,0.0000
1.8260,0.6223,0.0000
1.8270,0.6223,0.0000
1.8280,0.6223,0.0000
1.8290,0.6223,0.0000
1.8300,0.6223,0.0000
1.8310,0.6223,0.0000
1.8320,0.6223,0.0000
1.8330,0.6223,0.0000
1.8340,0.6223,0.0000
1.8350,0.6223,0.0000
1.8360,0.6223,0.0000
1.8370,0.6223,0.0000
1.8380,0.6223,0.0000
1.8390,0.6223,0.0000
1.8400,0.6223,0.0000
1.8410,0.6223,0.0000
1.8420,0.6223,0.0000
1.8430,0.6223,0.0000
1.8440,0.6223,0.0000
1.8450,0.6223,0.0000
1.8460,0.6223,0.0000
1.8470,0.6223,0.0000
1.8480,0.6223,0.0000
1.8490,0.6230,0.0000
1.8500,0.6230,0.0000
1.8510,0.6230,0.0000
1.8520,0.6230,0.0000
1.8530,0.6230,0.0000
1.8540,0.6230,0.0000
1.8550,0.6238,0.0000
1.8560,0.6238,0.0000
1.8570,0.6238,0.0000
1.8580,0.6238,0.0000
1.8590,0.6238,0.0000
1.8600,0.6238,0.0000
1.8610,0.6238,0.0000
1.8620,0.6238,0.0000
1.8630,0.6238,0.0000
1.8640,0.6238,0.0000
1.8650,0.6238,0.0000
1.8660,0.6238,0.0000
1.8670,0.6238,0.0000
1.8680,0.6238,0.0000
1.8690,0.6238,0.0000
1.8700,0.6238,0.0000
1.8710,0.6238,0.0000
1.8720,0.6238,0.0000
1.8730,0.6238,0.0000
1.8740,0.6245,0.0000
1.8750,0.6245,0.0000
1.8760,0.6245,0.0000
1.8770,0.6245,0.0000
1.8780,0.6245,0.0000
1.8790,0.6245,0.0000
1.8800,0.6245,0.0000
1.8810,0.6245,0.0000
1.8820,0.6245,0.0000
1.8830,0.6245,0.0000
1.8840,0.6253,0.0000
1.8850,0.6253,0.0000
1.8860,0.6253,0.0000
1.8870,0.6253,0.0000
1.8880,0.6253,0.0000
1.8890,0.6253,0.0000
1.8900,0.6253,0.0000
1.8910,0.6253,0.0000
1.8920,0.6260,0.0000
1.8930,0.6260,0.0000
1.8940,0.6260,0.0000
1.8950,0.6267,0.0000
1.8960,0.6267,0.0000
1.8970,0.6267,0.0000
1.8980,0.6267,0.0000
1.8990,0.6267,0.0000
1.9000,0.6267,0.0000
1.9010,0.6267,0.0000
1.9020,0.6267,0.0000
1.9030,0.6267,0.0000
1.9040,0.6267,0.0000
1.9050,0.6267,0.0000
1.9060,0.6267,0.0000
1.9070,0.6275,0.0000
1.9080,0.6275,0.0000
1.9090,0.6275,0.0000
1.9100,0.6275,0.0000
1.9110,0.6275,0.0000
1.9120,0.6282,0.0000
1.9130,0.6282,0.0000
1.9140,0.6282,0.0000
1.9150,0.6282,0.0000
1.9160,0.6282,0.0000
1.9170,0.6282,0.0000
1.9180,0.6282,0.0000
1.9190,0.6282,0.0000
1.9200,0.6282,0.0000
1.9210,0.6282,0.0000
1.9220,0.6282,0.0000
1.9230,0.6282,0.0000
1.9240,0.6289,0.0000
1.9250,0.6289,0.0000
1.9260,0.6289,0.0000
1.9270,0.6296,0.0000
1.9280,0.6304,0.0000
1.9290,0.6304,0.0000
1.9300,0.6304,0.0000
1.9310,0.6304,0.0000
1.9320,0.6304,0.0000
1.9330,0.6304,0.0000
1.9340,0.6304,0.0000
1.9350,0.6304,0.0000
1.9360,0.6304,0.0000
1.9370,0.6304,0.0000
1.9380,0.6304,0.0000
1.9390,0.6304,0.0000
1.9400,0.6304,0.0000
1.9410,0.6304,0.0000
1.9420,0.6312,0.0000
1.9430,0.6312,0.0000
1.9440,0.6312,0.0000
1.9450,0.6312,0.0000
1.9460,0.6319,0.0000
1.9470,0.6319,0.0000
1.9480,0.6319,0.0000
1.9490,0.6319,0.0000
1.9500,0.6319,0.0000
1.9510,0.6319,0.0000
1.9520,0.6319,0.0000
1.9530,0.6319,0.0000
1.9540,0.6319,0.0000
1.9550,0.6319,0.0000
1.9560,0.6327,0.0000
1.9570,0.6334,0.0000
1.9580,0.6334,0.0000
1.9590,0.6334,0.0000
1.9600,0.6334,0.0000
1.9610,0.6334,0.0000
1.9620,0.6334,0.0000
1.9630,0.6341,0.0000
1.9640,0.6341,0.0000
1.9650,0.6341,0.0000
1.9660,0.6341,0.0000
1.9670,0.6341,0.0000
1.9680,0.6349,0.0000
1.9690,0.6349,0.0000
1.9700,0.6349,0.0000
1.9710,0.6349,0.0000
1.9720,0.6349,0.0000
1.9730,0.6349,0.0000
1.9740,0.6349,0.0000
1.9750,0.6349,0.0000
1.9760,0.6349,0.0000
1.9770,0.6349,0.0000
1.9780,0.6349,0.0000
1.9790,0.6356,0.0000
1.9800,0.6356,0.0000
1.9810,0.6364,0.0000
1.9820,0.6364,0.0000
1.9830,0.6364,0.0000
1.9840,0.6364,0.0000
1.9850,0.6364,0.0000
1.9860,0.6364,0.0000
1.9870,0.6364,0.0000
1.9880,0.6364,0.0000
1.9890,0.6371,0.0000
1.9900,0.6371,0.0000
1.9910,0.6371,0.0000
1.9920,0.6371,0.0000
1.9930,0.6378,0.0000
1.9940,0.6386,0.0000
1.9950,0.6386,0.0000
1.9960,0.6386,0.0000
1.9970,0.6386,0.0000
1.9980,0.6386,0.0000
1.9990,0.6386,0.0000
2.0000,0.6386,0.0000
2.0010,0.6386,0.0000
2.0020,0.6386,0.0000
2.0030,0.6386,0.0000
2.0040,0.6394,0.0000
2.0050,0.6394,0.0000
2.0060,0.6394,0.0000
2.0070,0.6394,0.0000
2.0080,0.6394,0.0000
2.0090,0.6401,0.0000
2.0100,0.6401,0.0000
2.0110,0.6401,0.0000
2.0120,0.6401,0.0000
2.0130,0.6401,0.0000
2.0140,0.6401,0.0000
2.0150,0.6401,0.0000
2.0160,0.6409,0.0000
2.0170,0.6409,0.0000
2.0180,0.6409,0.0000
2.0190,0.6409,0.0000
2.0200,0.6409,0.0000
2.0210,0.6409,0.0000
2.0220,0.6409,0.0000
2.0230,0.6409,0.0000
2.0240,0.6417,0.0000
2.0250,0.6417,0.0000
2.0260,0.6417,0.0000
2.0270,0.6424,0.0000
2.0280,0.6424,0.0000
2.0290,0.6424,0.0000
2.0300,0.6424,0.0000
2.0310,0.6424,0.0000
2.0320,0.6424,0.0000
2.0330,0.6424,0.0000
2.0340,0.6424,0.0000
2.0350,0.6424,0.0000
2.0360,0.6424,0.0000
2.0370,0.6424,0.0000
2.0380,0.6424,0.0000
2.0390,0.6440,0.0000
2.0400,0.6440,0.0000
2.0410,0.6440,0.0000
2.0420,0.6440,0.0000
2.0430,0.6440,0.0000
2.0440,0.6440,0.0000
2.0450,0.6440,0.0000
2.0460,0.6440,0.0000
2.0470,0.6440,0.0000
2.0480,0.6440,0.0000
2.0490,0.6440,0.0000
2.0500,0.6447,0.0000
2.0510,0.6447,0.0000
2.0520,0.6447,0.0000
2.0530,0.6455,0.0000
2.0540,0.6455,0.0000
2.0550,0.6455,0.0000
2.0560,0.6455,0.0000
2.0570,0.6455,0.0000
2.0580,0.6455,0.0000
2.0590,0.6455,0.0000
2.0600,0.6455,0.0000
2.0610,0.6463,0.0000
2.0620,0.6463,0.0000
2.0630,0.6463,0.0000
2.0640,0.6463,0.0000
2.0650,0.6463,0.0000
2.0660,0.6463,0.0000
2.0670,0.6471,0.0000
2.0680,0.6471,0.0000
2.0690,0.6471,0.0000
2.0700,0.6471,0.0000
2.0710,0.6471,0.0000
2.0720,0.6478,0.0000
2.0730,0.6478,0.0000
2.0740,0.6478,0.0000
2.0750,0.6478,0.0000
2.0760,0.6478,0.0000
2.0770,0.6478,0.0000
2.0780,0.6478,0.0000
2.0790,0.6478,0.0000
2.0800,0.6478,0.0000
2.0810,0.6486,0.0000
2.0820,0.6486,0.0000
2.0830,0.6494,0.0000
2.0840,0.6494,0.0000
2.0850,0.6494,0.0000
2.0860,0.6494,0.0000
2.0870,0.6494,0.0000
2.0880,0.6494,0.0000
2.0890,0.6494,0.0000
2.0900,0.6494,0.0000
2.0910,0.6494,0.0000
2.0920,0.6494,0.0000
2.0930,0.6494,0.0000
2.0940,0.6509,0.0000
2.0950,0.6509,0.0000
2.0960,0.6509,0.0000
2.0970,0.6509,0.0000
2.0980,0.6509,0.0000
2.0990,0.6509,0.0000
2.1000,0.6509,0.0000
2.1010,0.6509,0.0000
2.1020,0.6509,0.0000
2.1030,0.6509,0.0000
2.1040,0.6509,0.0000
2.1050,0.6517,0.0000
2.1060,0.6517,0.0000
2.1070,0.6517,0.0000
2.1080,0.6525,0.0000
2.1090,0.6525,0.0000
2.1100,0.6525,0.0000
2.1110,0.6525,0.0000
2.1120,0.6525,0.0000
2.1130,0.6525,0.0000
2.1140,0.6525,0.0000
2.1150,0.6525,0.0000
2.1160,0.6532,0.0000
2.1170,0.6532,0.0000
2.1180,0.6532,0.0000
2.1190,0.6532,0.0000
2.1200,0.6532,0.0000
2.1210,0.6533,0.0000
2.1220,0.6541,0.0000
2.1230,0.6542,0.0000
2.1240,0.6543,0.0000
2.1250,0.6543,0.0000
2.1260,0.6544,0.0000
2.1270,0.6552,0.0000
2.1280,0.6553,0.0000
2.1290,0.6554,0.0000
2.1300,0.6554,0.0000
2.1310,0.6554,0.0000
2.1320,0.6554,0.0000
2.1330,0.6554,0.0000
2.1340,0.6554,0.0000
2.1350,0.6562,0.0000
2.1360,0.6562,0.0000
2.1370,0.6562,0.0000
2.1380,0.6570,0.0000
2.1390,0.6570,0.0000
2.1400,0.6570,0.0000
2.1410,0.6570,0.0000
2.1420,0.6570,0.0000
2.1430,0.6570,0.0000
2.1440,0.6570,0.0000
2.1450,0.6570,0.0000
2.1460,0.6570,0.0000
2.1470,0.6570,0.0000
2.1480,0.6570,0.0000
2.1490,0.6586,0.0000
2.1500,0.6586,0.0000
2.1510,0.6586,0.0000
2.1520,0.6586,0.0000
2.1530,0.6586,0.0000
2.1540,0.6586,0.0000
2.1550,0.6586,0.0000
2.1560,0.6586,0.0000
2.1570,0.6586,0.0000
2.1580,0.6586,0.0000
2.1590,0.6586,0.0000
2.1600,0.6586,0.0000
2.1610,0.6593,0.0000
2.1620,0.6593,0.0000
2.1630,0.6593,0.0000
2.1640,0.6601,0.0000
2.1650,0.6601,0.0000
2.1660,0.6601,0.0000
2.1670,0.6601,0.0000
2.1680,0.6601,0.0000
2.1690,0.6601,0.0000
2.1700,0.6601,0.0000
2.1710,0.6601,0.0000
2.1720,0.6609,0.0000
2.1730,0.6609,0.0000
2.1740,0.6609,0.0000
2.1750,0.6609,0.0000
2.1760,0.6609,0.0000
2.1770,0.6609,0.0000
2.1780,0.6617,0.0000
2.1790,0.6617,0.0000
2.1800,0.6617,0.0000
2.1810,0.6617,0.0000
2.1820,0.6617,0.0000
2.1830,0.6617,0.0000
2.1840,0.6624,0.0000
2.1850,0.6624,0.0000
2.1860,0.6624,0.0000
2.1870,0.6624,0.0000
2.1880,0.6624,0.0000
2.1890,0.6624,0.0000
2.1900,0.6624,0.0000
2.1910,0.6624,0.0000
2.1920,0.6624,0.0000
2.1930,0.6632,0.0000
2.1940,0.6632,0.0000
2.1950,0.6632,0.0000
2.1960,0.6632,0.0000
2.1970,0.6640,0.0000
2.1980,0.6640,0.0000
2.1990,0.6640,0.0000
2.2000,0.6640,0.0000
2.2010,0.6640,0.0000
2.2020,0.6640,0.0000
2.2030,0.6640,0.0000
2.2040,0.6640,0.0000
2.2050,0.6640,0.0000
2.2060,0.6640,0.0000
2.2070,0.6640,0.0000
2.2080,0.6648,0.0000
2.2090,0.6648,0.0000
2.2100,0.6656,0.0000
2.2110,0.6656,0.0000
2.2120,0.6656,0.0000
2.2130,0.6656,0.0000
2.2140,0.6656,0.0000
2.2150,0.6656,0.0000
2.2160,0.6656,0.0000
2.2170,0.6656,0.0000
2.2180,0.6656,0.0000
2.2190,0.6656,0.0000
2.2200,0.6656,0.0000
2.2210,0.6656,0.0000
2.2220,0.6656,0.0000
2.2230,0.6671,0.0000
2.2240,0.6671,0.0000
2.2250,0.6671,0.0000
2.2260,0.6671,0.0000
2.2270,0.6671,0.0000
2.2280,0.6671,0.0000
2.2290,0.6671,0.0000
2.2300,0.6671,0.0000
2.2310,0.6671,0.0000
2.2320,0.6671,0.0000
2.2330,0.6671,0.0000
2.2340,0.6671,0.0000
2.2350,0.6671,0.0000
2.2360,0.6679,0.0000
2.2370,0.6679,0.0000
2.2380,0.6679,0.0000
2.2390,0.6679,0.0000
2.2400,0.6687,0.0000
2.2410,0.6687,0.0000
2.2420,0.6687,0.0000
2.2430,0.6687,0.0000
2.2440,0.6687,0.0000
2.2450,0.6687,0.0000
2.2460,0.6687,0.0000
2.2470,0.6687,0.0000
2.2480,0.6687,0.0000
2.2490,0.6687,0.0000
2.2500,0.6687,0.0000
2.2510,0.6695,0.0000
2.2520,0.6695,0.0000
2.2530,0.6695,0.0000
2.2540,0.6695,0.0000
2.2550,0.6695,0.0000
2.2560,0.6695,0.0000
2.2570,0.6703,0.0000
2.2580,0.6703,0.0000
2.2590,0.6703,0.0000
2.2600,0.6703,0.0000
2.2610,0.6703,0.0000
2.2620,0.6703,0.0000
2.2630,0.6703,0.0000
2.2640,0.6703,0.0000
2.2650,0.6703,0.0000
2.2660,0.6711,0.0000
2.2670,0.6711,0.0000
2.2680,0.6711,0.0000
2.2690,0.6711,0.0000
2.2700,0.6711,0.0000
2.2710,0.6711,0.0000
2.2720,0.6711,0.0000
2.2730,0.6711,0.0000
2.2740,0.6711,0.0000
2.2750,0.6718,0.0000
2.2760,0.6718,0.0000
2.2770,0.6718,0.0000
2.2780,0.6718,0.0000
2.2790,0.6718,0.0000
2.2800,0.6718,0.0000
2.2810,0.6718,0.0000
2.2820,0.6726,0.0000
2.2830,0.6726,0.0000
2.2840,0.6726,0.0000
2.2850,0.6726,0.0000
2.2860,0.6726,0.0000
2.2870,0.6726,0.0000
2.2880,0.6726,0.0000
2.2890,0.6726,0.0000
2.2900,0.6726,0.0000
2.2910,0.6726,0.0000
2.2920,0.6726,0.0000
2.2930,0.6726,0.0000
2.2940,0.6734,0.0000
2.2950,0.6734,0.0000
2.2960,0.6734,0.0000
2.2970,0.6734,0.0000
2.2980,0.6734,0.0000
2.2990,0.6742,0.0000
2.3000,0.6742,0.0000
2.3010,0.6742,0.0000
2.3020,0.6742,0.0000
2.3030,0.6742,0.0000
2.3040,0.6742,0.0000
2.3050,0.6742,0.0000
2.3060,0.6742,0.0000
2.3070,0.6742,0.0000
2.3080,0.6742,0.0000
2.3090,0.6742,0.0000
2.3100,0.6742,0.0000
2.3110,0.6742,0.0000
2.3120,0.6742,0.0000
2.3130,0.6742,0.0000
2.3140,0.6750,0.0000
2.3150,0.6750,0.0000
2.3160,0.6750,0.0000
2.3170,0.6758,0.0000
2.3180,0.6758,0.0000
2.3190,0.6758,0.0000
2.3200,0.6758,0.0000
2.3210,0.6758,0.0000
2.3220,0.6758,0.0000
2.3230,0.6758,0.0000
2.3240,0.6758,0.0000
2.3250,0.6758,0.0000
2.3260,0.6758,0.0000
2.3270,0.6758,0.0000
2.3280,0.6758,0.0000
2.3290,0.6758,0.0000
2.3300,0.6758,0.0000
2.3310,0.6758,0.0000
2.3320,0.6758,0.0000
2.3330,0.6758,0.0000
2.3340,0.6758,0.0000
2.3350,0.6758,0.0000
2.3800,0.7014,0.0000
2.3810,0.7022,0.0000
2.3820,0.7022,0.0000
2.3830,0.7022,0.0000
2.3840,0.7022,0.0000
2.3850,0.7022,0.0000
2.3860,0.7022,0.0000
2.3870,0.7022,0.0000
2.3880,0.7031,0.0000
2.3890,0.7031,0.0000
2.3900,0.7031,0.0000
2.3910,0.7031,0.0000
2.3920,0.7031,0.0000
2.3930,0.7031,0.0000
2.3940,0.7031,0.0000
2.3950,0.7039,0.0000
2.3960,0.7039,0.0000
2.3970,0.7039,0.0000
2.3980,0.7039,0.0000
2.3990,0.7039,0.0000
2.4000,0.7039,0.0000
2.4010,0.7039,0.0000
2.4020,0.7039,0.0000
2.4030,0.7039,0.0000
2.4040,0.7039,0.0000
2.4050,0.7039,0.0000
2.4060,0.7039,0.0000
2.4070,0.7039,0.0000
2.4080,0.7039,0.0000
2.4090,0.7039,0.0000
2.4100,0.7039,0.0000
2.4110,0.7039,0.0000
2.4120,0.7039,0.0000
2.4130,0.7039,0.0000
2.4140,0.7039,0.0000
2.4150,0.7039,0.0000
2.4160,0.7039,0.0000
2.4170,0.7039,0.0000
2.4180,0.7039,0.0000
2.4190,0.7039,0.0000
2.4200,0.7039,0.0000
2.4210,0.7039,0.0000
2.4220,0.7047,0.0000
2.4230,0.7047,0.0000
2.4240,0.7047,0.0000
2.4250,0.7047,0.0000
2.4260,0.7047,0.0000
2.4270,0.7047,0.0000
2.4280,0.7047,0.0000
2.4290,0.7047,0.0000
2.4300,0.7047,0.0000
2.4310,0.7047,0.0000
2.4320,0.7047,0.0000
2.4330,0.7047,0.0000
2.4340,0.7047,0.0000
2.4350,0.7047,0.0000
2.4360,0.7047,0.0000
2.4370,0.7047,0.0000
2.4380,0.7047,0.0000
2.4390,0.7047,0.0000
2.4400,0.7047,0.0000
2.4410,0.7047,0.0000
2.4420,0.7047,0.0000
2.4430,0.7047,0.0000
2.4440,0.7047,0.0000
2.4450,0.7047,0.0000
2.4460,0.7047,0.0000
2.4470,0.7047,0.0000
2.4480,0.7039,0.0000
2.4490,0.7039,0.0000
2.4500,0.7039,0.0000
2.4510,0.7039,0.0000
2.4520,0.7039,0.0000
2.4530,0.7039,0.0000
2.4540,0.7039,0.0000
2.4550,0.7039,0.0000
2.4560,0.7039,0.0000
2.4570,0.7039,0.0000
2.4580,0.7039,0.0000
2.4590,0.7039,0.0000
2.4600,0.7039,0.0000
2.4610,0.7039,0.0000
2.4620,0.7039,0.0000
2.4630,0.7039,0.0000
2.4640,0.7039,0.0000
2.4650,0.7039,0.0000
2.4660,0.7039,0.0000
2.4670,0.7039,0.0000
2.4680,0.7039,0.0000
2.4690,0.7039,0.0000
2.4700,0.7039,0.0000
2.4710,0.7039,0.0000
2.4720,0.7039,0.0000
2.4730,0.7039,0.0000
2.4740,0.7047,0.0000
2.4750,0.7047,0.0000
2.4760,0.7047,0.0000
2.4770,0.7047,0.0000
2.4780,0.7047,0.0000
2.4790,0.7047,0.0000
2.4800,0.7047,0.0000
2.4810,0.7047,0.0000
2.4820,0.7039,0.0000
2.4830,0.7039,0.0000
2.4840,0.7039,0.0000
2.4850,0.7039,0.0000
2.4860,0.7039,0.0000
2.4870,0.7039,0.0000
2.4880,0.7039,0.0000
2.4890,0.7039,0.0000
2.4900,0.7039,0.0000
2.4910,0.7039,0.0000
2.4920,0.7039,0.0000
2.4930,0.7039,0.0000
2.4940,0.7039,0.0000
2.4950,0.7039,0.0000
2.4960,0.7039,0.0000
2.4970,0.7039,0.0000
2.4980,0.7039,0.0000
2.4990,0.7039,0.0000
2.5000,0.7039,0.0000
2.5010,0.7039,0.0000
2.5020,0.7039,0.0000
2.5030,0.7039,0.0000
2.5040,0.7039,0.0000
2.5050,0.7039,0.0000
2.5060,0.7039,0.0000
2.5070,0.7039,0.0000
2.5080,0.7039,0.0000
2.5090,0.7039,0.0000
2.5100,0.7039,0.0000
2.5110,0.7039,0.0000
2.5120,0.7039,0.0000
2.5130,0.7039,0.0000
2.5140,0.7039,0.0000
2.5150,0.7039,0.0000
2.5160,0.7039,0.0000
2.5170,0.7039,0.0000
2.5180,0.7039,0.0000
2.5190,0.7039,0.0000
2.5200,0.7039,0.0000
2.5210,0.7039,0.0000
2.5220,0.7039,0.0000
2.5230,0.7039,0.0000
2.5240,0.7039,0.0000
2.5250,0.7039,0.0000
2.5260,0.7039,0.0000
2.5270,0.7039,0.0000
2.5280,0.7039,0.0000
2.5290,0.7039,0.0000
2.5300,0.7039,0.0000
2.5310,0.7039,0.0000
2.5320,0.7039,0.0000
2.5330,0.7039,0.0000
2.5340,0.7039,0.0000
2.5350,0.7039,0.0000
2.5360,0.7039,0.0000
2.5370,0.7039,0.0000
2.5380,0.7039,0.0000
2.5390,0.7039,0.0000
2.5400,0.7039,0.0000
2.5410,0.7039,0.0000
2.5420,0.7039,0.0000
2.5430,0.7039,0.0000
2.5440,0.7039,0.0000
2.5450,0.7039,0.0000
2.5460,0.7039,0.0000
2.5470,0.7039,0.0000
2.5480,0.7039,0.0000
2.5490,0.7039,0.0000
2.5500,0.7039,0.0000
2.5510,0.7039,0.0000
2.5520,0.7039,0.0000
2.5530,0.7039,0.0000
2.5540,0.7039,0.0000
2.5550,0.7039,0.0000
2.5560,0.7039,0.0000
2.5570,0.7039,0.0000
2.5580,0.7039,0.0000
2.5590,0.7039,0.0000
2.5600,0.7039,0.0000
2.5610,0.7039,0.0000
2.5620,0.7039,0.0000
2.5630,0.7039,0.0000
2.5640,0.7039,0.0000
2.5650,0.7039,0.0000
2.5660,0.7039,0.0000
2.5670,0.7039,0.0000
2.5680,0.7039,0.0000
2.5690,0.7039,0.0000
2.5700,0.7039,0.0000
2.5710,0.7047,0.0000
2.5720,0.7047,0.0000
2.5730,0.7047,0.0000
2.5740,0.7047,0.0000
2.5750,0.7047,0.0000
2.5760,0.7047,0.0000
2.5770,0.7047,0.0000
2.5780,0.7040,0.0000
2.5790,0.7040,0.0000
2.5800,0.7040,0.0000
2.5810,0.7040,0.0000
2.5820,0.7040,0.0000
2.5830,0.7040,0.0000
2.5840,0.7040,0.0000
2.5850,0.7040,0.0000
2.5860,0.7040,0.0000
2.5870,0.7040,0.0000
2.5880,0.7040,0.0000
2.5890,0.7040,0.0000
2.5900,0.7040,0.0000
2.5910,0.7040,0.0000
2.5920,0.7040,0.0000
2.5930,0.7040,0.0000
2.5940,0.7040,0.0000
2.5950,0.7031,0.0000
2.5960,0.7031,0.0000
2.5970,0.7031,0.0000
2.5980,0.7040,0.0000
2.5990,0.7040,0.0000
2.6000,0.7040,0.0000
2.6010,0.7040,0.0000
2.6020,0.7040,0.0000
2.6030,0.7040,0.0000
2.6040,0.7040,0.0000
2.6050,0.7040,0.0000
2.6060,0.7040,0.0000
2.6070,0.7040,0.0000
2.6080,0.7040,0.0000
2.6090,0.7040,0.0000
2.6100,0.7040,0.0000
2.6110,0.7040,0.0000
2.6120,0.7040,0.0000
2.6130,0.7040,0.0000
2.6140,0.7040,0.0000
2.6150,0.7040,0.0000
2.6160,0.7040,0.0000
2.6170,0.7040,0.0000
2.6180,0.7048,0.0000
2.6190,0.7048,0.0000
2.6200,0.7048,0.0000
2.6210,0.7048,0.0000
2.6220,0.7048,0.0000
2.6230,0.7048,0.0000
2.6240,0.7048,0.0000
2.6250,0.7048,0.0000
2.6260,0.7048,0.0000
2.6270,0.7048,0.0000
2.6280,0.7048,0.0000
2.6290,0.7048,0.0000
2.6300,0.7048,0.0000
2.6310,0.7048,0.0000
2.6320,0.7048,0.0000
2.6330,0.7048,0.0000
2.6340,0.7048,0.0000
2.6350,0.7056,0.0000
2.6360,0.7056,0.0000
2.6370,0.7056,0.0000
2.6380,0.7056,0.0000
2.6390,0.7056,0.0000
2.6400,0.7056,0.0000
2.6410,0.7056,0.0000
2.6420,0.7056,0.0000
2.6430,0.7056,0.0000
2.6440,0.7056,0.0000
2.6450,0.7056,0.0000
2.6460,0.7056,0.0000
2.6470,0.7056,0.0000
2.6480,0.7056,0.0000
2.6490,0.7056,0.0000
2.6500,0.7056,0.0000
2.6510,0.7056,0.0000
2.6520,0.7056,0.0000
2.6530,0.7064,0.0000
2.6540,0.7064,0.0000
2.6550,0.7064,0.0000
2.6560,0.7064,0.0000
2.6570,0.7064,0.0000
2.6580,0.7064,0.0000
2.6590,0.7064,0.0000
2.6600,0.7064,0.0000
2.6610,0.7056,0.0000
2.6620,0.7048,0.0000
2.6630,0.7048,0.0000
2.6640,0.7048,0.0000
2.6650,0.7048,0.0000
2.6660,0.7048,0.0000
2.6670,0.7048,0.0000
2.6680,0.7048,0.0000
2.6690,0.7056,0.0000
2.6700,0.7056,0.0000
2.6710,0.7056,0.0000
2.6720,0.7048,0.0000
2.6730,0.7048,0.0000
2.6740,0.7048,0.0000
2.6750,0.7048,0.0000
2.6760,0.7048,0.0000
2.6770,0.7048,0.0000
2.6780,0.7048,0.0000
2.6790,0.7048,0.0000
2.6800,0.7048,0.0000
2.6810,0.7048,0.0000
2.6820,0.7048,0.0000
2.6830,0.7040,0.0000
2.6840,0.7040,0.0000
2.6850,0.7040,0.0000
2.6860,0.7040,0.0000
2.6870,0.7048,0.0000
2.6880,0.7048,0.0000
2.6890,0.7048,0.0000
2.6900,0.7048,0.0000
2.6910,0.7048,0.0000
2.6920,0.7048,0.0000
2.6930,0.7040,0.0000
2.6940,0.7040,0.0000
2.6950,0.7040,0.0000
2.6960,0.7040,0.0000
2.6970,0.7040,0.0000
2.6980,0.7040,0.0000
2.6990,0.7040,0.0000
2.7000,0.7040,0.0000
2.7010,0.7040,0.0000
2.7020,0.7040,0.0000
2.7030,0.7032,0.0000
2.7040,0.7040,0.0000
2.7050,0.7040,0.0000
2.7060,0.7040,0.0000
2.7070,0.7040,0.0000
2.7080,0.7040,0.0000
2.7090,0.7040,0.0000
2.7100,0.7040,0.0000
2.7110,0.7040,0.0000
2.7120,0.7041,0.0000
2.7130,0.7042,0.0000
2.7140,0.7034,0.0000
2.7150,0.7035,0.0000
2.7160,0.7036,0.0000
2.7170,0.7036,0.0000
2.7180,0.7037,0.0000
2.7190,0.7038,0.0000
2.7200,0.7038,0.0000
2.7210,0.7038,0.0000
2.7220,0.7046,0.0000
2.7230,0.7046,0.0000
2.7240,0.7038,0.0000
2.7250,0.7038,0.0000
2.7260,0.7038,0.0000
2.7270,0.7038,0.0000
2.7280,0.7038,0.0000
2.7290,0.7038,0.0000
2.7300,0.7038,0.0000
2.7310,0.7038,0.0000
2.7320,0.7038,0.0000
2.7330,0.7038,0.0000
2.7340,0.7030,0.0000
2.7350,0.7030,0.0000
2.7360,0.7030,0.0000
2.7370,0.7030,0.0000
2.7380,0.7030,0.0000
2.7390,0.7030,0.0000
2.7400,0.7030,0.0000
2.7410,0.7038,0.0000
2.7420,0.7038,0.0000
2.7430,0.7038,0.0000
2.7440,0.7038,0.0000
2.7450,0.7030,0.0000
2.7460,0.7030,0.0000
2.7470,0.7030,0.0000
2.7480,0.7030,0.0000
2.7490,0.7030,0.0000
2.7500,0.7030,0.0000
2.7510,0.7030,0.0000
2.7520,0.7030,0.0000
2.7530,0.7022,0.0000
2.7540,0.7022,0.0000
2.7550,0.7022,0.0000
2.7560,0.7022,0.0000
2.7570,0.7013,0.0000
2.7580,0.7013,0.0000
2.7590,0.7013,0.0000
2.7600,0.7021,0.0000
2.7610,0.7021,0.0000
2.7620,0.7013,0.0000
2.7630,0.7013,0.0000
2.7640,0.7013,0.0000
2.7650,0.7013,0.0000
2.7660,0.7013,0.0000
2.7670,0.7005,0.0000
2.7680,0.7005,0.0000
2.7690,0.7005,0.0000
2.7700,0.7005,0.0000
2.7710,0.6997,0.0000
2.7720,0.6997,0.0000
2.7730,0.6997,0.0000
2.7740,0.6997,0.0000
2.7750,0.6997,0.0000
2.7760,0.6988,0.0000
2.7770,0.6988,0.0000
2.7780,0.6988,0.0000
2.7790,0.6996,0.0000
2.7800,0.6996,0.0000
2.7810,0.6987,0.0000
2.7820,0.6987,0.0000
2.7830,0.6986,0.0000
2.7840,0.6985,0.0000
2.7850,0.6985,0.0000
2.7860,0.6976,0.0000
2.7870,0.6975,0.0000
2.7880,0.6974,0.0000
2.7890,0.6974,0.0000
2.7900,0.6973,0.0000
2.7910,0.6965,0.0000
2.7920,0.6965,0.0000
2.7930,0.6965,0.0000
2.7940,0.6965,0.0000
2.7950,0.6956,0.0000
2.7960,0.6956,0.0000
2.7970,0.6956,0.0000
2.7980,0.6956,0.0000
2.7990,0.6964,0.0000
2.8000,0.6956,0.0000
2.8010,0.6955,0.0000
2.8020,0.6955,0.0000
2.8030,0.6954,0.0000
2.8040,0.6953,0.0000
2.8050,0.6944,0.0000
2.8060,0.6944,0.0000
2.8070,0.6943,0.0000
2.8080,0.6942,0.0000
2.8090,0.6942,0.0000
2.8100,0.6933,0.0000
2.8110,0.6932,0.0000
2.8120,0.6931,0.0000
2.8130,0.6931,0.0000
2.8140,0.6930,0.0000
2.8150,0.6921,0.0000
2.8160,0.6920,0.0000
2.8170,0.6920,0.0000
2.8180,0.6919,0.0000
2.8190,0.6926,0.0000
2.8200,0.6917,0.0000
2.8210,0.6916,0.0000
2.8220,0.6914,0.0000
2.8230,0.6913,0.0000
2.8240,0.6911,0.0000
2.8250,0.6910,0.0000
2.8260,0.6909,0.0000
2.8270,0.6907,0.0000
2.8280,0.6906,0.0000
2.8290,0.6905,0.0000
2.8300,0.6903,0.0000
2.8310,0.6901,0.0000
2.8320,0.6899,0.0000
2.8330,0.6897,0.0000
2.8340,0.6895,0.0000
2.8350,0.6893,0.0000
2.8360,0.6891,0.0000
2.8370,0.6880,0.0000
2.8380,0.6878,0.0000
2.8390,0.6876,0.0000
2.8400,0.6874,0.0000
2.8410,0.6880,0.0000
2.8420,0.6878,0.0000
2.8430,0.6876,0.0000
2.8440,0.6874,0.0000
2.8450,0.6871,0.0000
2.8460,0.6869,0.0000
2.8470,0.6867,0.0000
2.8480,0.6865,0.0000
2.8490,0.6863,0.0000
2.8500,0.6861,0.0000
2.8510,0.6855,0.0000
2.8520,0.6850,0.0000
2.8530,0.6844,0.0000
2.8540,0.6839,0.0000
2.8550,0.6833,0.0000
2.8560,0.6828,0.0000
2.8570,0.6822,0.0000
2.8580,0.6817,0.0000
2.8590,0.6811,0.0000
2.8600,0.6805,0.0000
2.8610,0.6793,0.0000
2.8620,0.6789,0.0000
2.8630,0.6785,0.0000
2.8640,0.6781,0.0000
2.8650,0.6784,0.0000
2.8660,0.6780,0.0000
2.8670,0.6776,0.0000
2.8680,0.6772,0.0000
2.8690,0.6767,0.0000
2.8700,0.6763,0.0000
2.8710,0.6760,0.0000
2.8720,0.6756,0.0000
2.8730,0.6753,0.0000
2.8740,0.6749,0.0000
2.8750,0.6746,0.0000
2.8760,0.6742,0.0000
2.8770,0.6739,0.0000
2.8780,0.6735,0.0000
2.8790,0.6732,0.0000
2.8800,0.6729,0.0000
2.8810,0.6725,0.0000
2.8820,0.6722,0.0000
2.8830,0.6718,0.0000
2.8840,0.6715,0.0000
2.8850,0.6711,0.0000
2.8860,0.6700,0.0000
2.8870,0.6696,0.0000
2.8880,0.6693,0.0000
2.8890,0.6689,0.0000
2.8900,0.6686,0.0000
2.8910,0.6684,0.0000
2.8920,0.6682,0.0000
2.8930,0.6687,0.0000
2.8940,0.6685,0.0000
2.8950,0.6683,0.0000
2.8960,0.6681,0.0000
2.8970,0.6679,0.0000
2.8980,0.6677,0.0000
2.8990,0.6675,0.0000
2.9000,0.6672,0.0000
2.9010,0.6669,0.0000
2.9020,0.6666,0.0000
2.9030,0.6662,0.0000
2.9040,0.6659,0.0000
2.9050,0.6655,0.0000
2.9060,0.6652,0.0000
2.9070,0.6648,0.0000
2.9080,0.6645,0.0000
2.9090,0.6641,0.0000
2.9100,0.6638,0.0000
2.9110,0.6627,0.0000
2.9120,0.6624,0.0000
2.9130,0.6621,0.0000
2.9140,0.6619,0.0000
2.9150,0.6616,0.0000
2.9160,0.6613,0.0000
2.9170,0.6610,0.0000
2.9180,0.6608,0.0000
2.9190,0.6605,0.0000
2.9200,0.6602,0.0000
2.9210,0.6597,0.0000
2.9220,0.6592,0.0000
2.9230,0.6587,0.0000
2.9240,0.6583,0.0000
2.9250,0.6578,0.0000
2.9260,0.6573,0.0000
2.9270,0.6575,0.0000
2.9280,0.6571,0.0000
2.9290,0.6566,0.0000
2.9300,0.6561,0.0000
2.9310,0.6555,0.0000
2.9320,0.6548,0.0000
2.9330,0.6542,0.0000
2.9340,0.6536,0.0000
2.9350,0.6530,0.0000
2.9360,0.6523,0.0000
2.9370,0.6517,0.0000
2.9380,0.6503,0.0000
2.9390,0.6497,0.0000
2.9400,0.6490,0.0000
2.9410,0.6485,0.0000
2.9420,0.6479,0.0000
2.9430,0.6474,0.0000
2.9440,0.6476,0.0000
2.9450,0.6470,0.0000
2.9460,0.6465,0.0000
2.9470,0.6459,0.0000
2.9480,0.6454,0.0000
2.9490,0.6448,0.0000
2.9500,0.6443,0.0000
2.9510,0.6442,0.0000
2.9520,0.6434,0.0000
2.9530,0.6426,0.0000
2.9540,0.6419,0.0000
2.9550,0.6411,0.0000
2.9560,0.6403,0.0000
2.9570,0.6396,0.0000
2.9580,0.6388,0.0000
2.9590,0.6380,0.0000
2.9600,0.6373,0.0000
2.9610,0.6365,0.0000
2.9620,0.6358,0.0000
2.9630,0.6350,0.0000
2.9640,0.6342,0.0000
2.9650,0.6335,0.0000
2.9660,0.6327,0.0000
2.9670,0.6319,0.0000
2.9680,0.6312,0.0000
2.9690,0.6304,0.0000
2.9700,0.6296,0.0000
2.9710,0.6289,0.0000
2.9720,0.6282,0.0000
2.9730,0.6275,0.0000
2.9740,0.6268,0.0000
2.9750,0.6262,0.0000
2.9760,0.6269,0.0000
2.9770,0.6262,0.0000
2.9780,0.6255,0.0000
2.9790,0.6248,0.0000
2.9800,0.6241,0.0000
2.9810,0.6231,0.0000
2.9820,0.6222,0.0000
2.9830,0.6212,0.0000
2.9840,0.6202,0.0000
2.9850,0.6192,0.0000
2.9860,0.6183,0.0000
2.9870,0.6173,0.0000
2.9880,0.6163,0.0000
2.9890,0.6160,0.0000
2.9900,0.6150,0.0000
2.9910,0.6142,0.0000
2.9920,0.6135,0.0000
2.9930,0.6127,0.0000
2.9940,0.6119,0.0000
2.9950,0.6112,0.0000
2.9960,0.6104,0.0000
2.9970,0.6096,0.0000
2.9980,0.6089,0.0000
2.9990,0.6081,0.0000
3.0000,0.6073,0.0000
3.0010,0.6062,0.0000
3.0020,0.6057,0.0000
3.0030,0.6046,0.0000
3.0040,0.6035,0.0000
3.0050,0.6024,0.0000
3.0060,0.6012,0.0000
3.0070,0.6008,0.0000
3.0080,0.5997,0.0000
3.0090,0.5986,0.0000
3.0100,0.5975,0.0000
3.0110,0.5967,0.0000
3.0120,0.5959,0.0000
3.0130,0.5952,0.0000
3.0140,0.5944,0.0000
3.0150,0.5936,0.0000
3.0160,0.5929,0.0000
3.0170,0.5921,0.0000
3.0180,0.5913,0.0000
3.0190,0.5906,0.0000
3.0200,0.5898,0.0000
3.0210,0.5888,0.0000
3.0220,0.5878,0.0000
3.0230,0.5868,0.0000
3.0240,0.5859,0.0000
3.0250,0.5849,0.0000
3.0260,0.5839,0.0000
3.0270,0.5829,0.0000
3.0280,0.5819,0.0000
3.0290,0.5810,0.0000
3.0300,0.5800,0.0000
3.0310,0.5794,0.0000
3.0320,0.5789,0.0000
3.0330,0.5783,0.0000
3.0340,0.5777,0.0000
3.0350,0.5772,0.0000
3.0360,0.5766,0.0000
3.0370,0.5768,0.0000
3.0380,0.5762,0.0000
3.0390,0.5756,0.0000
3.0400,0.5751,0.0000
3.0410,0.5748,0.0000
3.0420,0.5745,0.0000
3.0430,0.5742,0.0000
3.0440,0.5740,0.0000
3.0450,0.5737,0.0000
3.0460,0.5734,0.0000
3.0470,0.5731,0.0000
3.0480,0.5728,0.0000
3.0490,0.5731,0.0000
3.0500,0.5729,0.0000
3.0510,0.5724,0.0000
3.0520,0.5720,0.0000
3.0530,0.5716,0.0000
3.0540,0.5712,0.0000
3.0550,0.5708,0.0000
3.0560,0.5703,0.0000
3.0570,0.5699,0.0000
3.0580,0.5695,0.0000
3.0590,0.5691,0.0000
3.0600,0.5687,0.0000
3.0610,0.5687,0.0000
3.0620,0.5688,0.0000
3.0630,0.5689,0.0000
3.0640,0.5689,0.0000
3.0650,0.5690,0.0000
3.0660,0.5698,0.0000
3.0670,0.5698,0.0000
3.0680,0.5699,0.0000
3.0690,0.5706,0.0000
3.0700,0.5707,0.0000
3.0710,0.5705,0.0000
3.0720,0.5703,0.0000
3.0730,0.5700,0.0000
3.0740,0.5698,0.0000
3.0750,0.5696,0.0000
3.0760,0.5694,0.0000
3.0770,0.5692,0.0000
3.0780,0.5690,0.0000
3.0790,0.5688,0.0000
3.0800,0.5686,0.0000
3.0810,0.5688,0.0000
3.0820,0.5690,0.0000
3.0830,0.5692,0.0000
3.0840,0.5694,0.0000
3.0850,0.5696,0.0000
3.0860,0.5698,0.0000
3.0870,0.5700,0.0000
3.0880,0.5703,0.0000
3.0890,0.5705,0.0000
3.0900,0.5707,0.0000
3.0910,0.5710,0.0000
3.0920,0.5714,0.0000
3.0930,0.5717,0.0000
3.0940,0.5728,0.0000
3.0950,0.5731,0.0000
3.0960,0.5735,0.0000
3.0970,0.5738,0.0000
3.0980,0.5742,0.0000
3.0990,0.5745,0.0000
3.1000,0.5749,0.0000
3.1010,0.5750,0.0000
3.1020,0.5752,0.0000
3.1030,0.5753,0.0000
3.1040,0.5754,0.0000
3.1050,0.5756,0.0000
3.1060,0.5757,0.0000
3.1070,0.5759,0.0000
3.1080,0.5760,0.0000
3.1090,0.5761,0.0000
3.1100,0.5763,0.0000
3.1110,0.5766,0.0000
3.1120,0.5768,0.0000
3.1130,0.5771,0.0000
3.1140,0.5774,0.0000
3.1150,0.5777,0.0000
3.1160,0.5780,0.0000
3.1170,0.5783,0.0000
3.1180,0.5785,0.0000
3.1190,0.5788,0.0000
3.1200,0.5791,0.0000
3.1210,0.5804,0.0000
3.1220,0.5811,0.0000
3.1230,0.5817,0.0000
3.1240,0.5823,0.0000
3.1250,0.5830,0.0000
3.1260,0.5836,0.0000
3.1270,0.5842,0.0000
3.1280,0.5849,0.0000
3.1290,0.5855,0.0000
3.1300,0.5861,0.0000
3.1310,0.5866,0.0000
3.1320,0.5871,0.0000
3.1330,0.5876,0.0000
3.1340,0.5881,0.0000
3.1350,0.5886,0.0000
3.1360,0.5891,0.0000
3.1370,0.5896,0.0000
3.1380,0.5901,0.0000
3.1390,0.5906,0.0000
3.1400,0.5911,0.0000
3.1410,0.5917,0.0000
3.1420,0.5923,0.0000
3.1430,0.5930,0.0000
3.1440,0.5936,0.0000
3.1450,0.5942,0.0000
3.1460,0.5949,0.0000
3.1470,0.5955,0.0000
3.1480,0.5968,0.0000
3.1490,0.5975,0.0000
3.1500,0.5981,0.0000
3.1510,0.5987,0.0000
3.1520,0.5994,0.0000
3.1530,0.6000,0.0000
3.1540,0.6007,0.0000
3.1550,0.6013,0.0000
3.1560,0.6019,0.0000
3.1570,0.6026,0.0000
3.1580,0.6032,0.0000
3.1590,0.6038,0.0000
3.1600,0.6045,0.0000
3.1610,0.6050,0.0000
3.1620,0.6056,0.0000
3.1630,0.6062,0.0000
3.1640,0.6067,0.0000
3.1650,0.6073,0.0000
3.1660,0.6078,0.0000
3.1670,0.6084,0.0000
3.1680,0.6090,0.0000
3.1690,0.6095,0.0000
3.1700,0.6101,0.0000
3.1710,0.6109,0.0000
3.1720,0.6118,0.0000
3.1730,0.6134,0.0000
3.1740,0.6142,0.0000
3.1750,0.6151,0.0000
3.1760,0.6159,0.0000
3.1770,0.6168,0.0000
3.1780,0.6176,0.0000
3.1790,0.6185,0.0000
3.1800,0.6193,0.0000
3.1810,0.6200,0.0000
3.1820,0.6207,0.0000
3.1830,0.6214,0.0000
3.1840,0.6221,0.0000
3.1850,0.6228,0.0000
3.1860,0.6235,0.0000
3.1870,0.6242,0.0000
3.1880,0.6249,0.0000
3.1890,0.6257,0.0000
3.1900,0.6264,0.0000
3.1910,0.6271,0.0000
3.1920,0.6278,0.0000
3.1930,0.6285,0.0000
3.1940,0.6292,0.0000
3.1950,0.6299,0.0000
3.1960,0.6306,0.0000
3.1970,0.6313,0.0000
3.1980,0.6328,0.0000
3.1990,0.6335,0.0000
3.2000,0.6342,0.0000
3.2010,0.6348,0.0000
3.2020,0.6354,0.0000
3.2030,0.6361,0.0000
3.2040,0.6367,0.0000
3.2050,0.6374,0.0000
3.2060,0.6380,0.0000
3.2070,0.6386,0.0000
3.2080,0.6393,0.0000
3.2090,0.6399,0.0000
3.2100,0.6405,0.0000
3.2110,0.6412,0.0000
3.2120,0.6418,0.0000
3.2130,0.6417,0.0000
3.2140,0.6424,0.0000
3.2150,0.6430,0.0000
3.2160,0.6436,0.0000
3.2170,0.6443,0.0000
3.2180,0.6449,0.0000
3.2190,0.6455,0.0000
3.2200,0.6462,0.0000
3.2210,0.6469,0.0000
3.2220,0.6485,0.0000
3.2230,0.6493,0.0000
3.2240,0.6500,0.0000
3.2250,0.6508,0.0000
3.2260,0.6516,0.0000
3.2270,0.6524,0.0000
3.2280,0.6532,0.0000
3.2290,0.6539,0.0000
3.2300,0.6547,0.0000
3.2310,0.6552,0.0000
3.2320,0.6557,0.0000
3.2330,0.6562,0.0000
3.2340,0.6567,0.0000
3.2350,0.6572,0.0000
3.2360,0.6577,0.0000
3.2370,0.6582,0.0000
3.2380,0.6587,0.0000
3.2390,0.6592,0.0000
3.2400,0.6597,0.0000
3.2410,0.6601,0.0000
3.2420,0.6605,0.0000
3.2430,0.6609,0.0000
3.2440,0.6614,0.0000
3.2450,0.6626,0.0000
3.2460,0.6630,0.0000
3.2470,0.6634,0.0000
3.2480,0.6638,0.0000
3.2490,0.6643,0.0000
3.2500,0.6647,0.0000
3.2510,0.6653,0.0000
3.2520,0.6658,0.0000
3.2530,0.6664,0.0000
3.2540,0.6670,0.0000
3.2550,0.6675,0.0000
3.2560,0.6681,0.0000
3.2570,0.6687,0.0000
3.2580,0.6692,0.0000
3.2590,0.6698,0.0000
3.2600,0.6704,0.0000
3.2610,0.6708,0.0000
3.2620,0.6713,0.0000
3.2630,0.6718,0.0000
3.2640,0.6723,0.0000
3.2650,0.6728,0.0000
3.2660,0.6733,0.0000
3.2670,0.6738,0.0000
3.2680,0.6751,0.0000
3.2690,0.6756,0.0000
3.2700,0.6761,0.0000
3.2710,0.6765,0.0000
3.2720,0.6768,0.0000
3.2730,0.6772,0.0000
3.2740,0.6775,0.0000
3.2750,0.6779,0.0000
3.2760,0.6782,0.0000
3.2770,0.6786,0.0000
3.2780,0.6789,0.0000
3.2790,0.6793,0.0000
3.2800,0.6796,0.0000
3.2810,0.6800,0.0000
3.2820,0.6804,0.0000
3.2830,0.6807,0.0000
3.2840,0.6811,0.0000
3.2850,0.6814,0.0000
3.2860,0.6818,0.0000
3.2870,0.6821,0.0000
3.2880,0.6825,0.0000
3.2890,0.6828,0.0000
3.2900,0.6840,0.0000
3.2910,0.6844,0.0000
3.2920,0.6847,0.0000
3.2930,0.6851,0.0000
3.2940,0.6854,0.0000
3.2950,0.6858,0.0000
3.2960,0.6861,0.0000
3.2970,0.6865,0.0000
3.2980,0.6868,0.0000
3.2990,0.6872,0.0000
3.3000,0.6875,0.0000
3.3010,0.6878,0.0000
3.3020,0.6880,0.0000
3.3030,0.6882,0.0000
3.3040,0.6884,0.0000
3.3050,0.6886,0.0000
3.3060,0.6888,0.0000
3.3070,0.6890,0.0000
3.3080,0.6892,0.0000
3.3090,0.6895,0.0000
3.3100,0.6897,0.0000
3.3110,0.6898,0.0000
3.3120,0.6908,0.0000
3.3130,0.6909,0.0000
3.3140,0.6911,0.0000
3.3150,0.6912,0.0000
3.3160,0.6913,0.0000
3.3170,0.6915,0.0000
3.3180,0.6916,0.0000
3.3190,0.6918,0.0000
3.3200,0.6919,0.0000
3.3210,0.6920,0.0000
3.3220,0.6920,0.0000
3.3230,0.6921,0.0000
3.3240,0.6922,0.0000
3.3250,0.6923,0.0000
3.3260,0.6923,0.0000
3.3270,0.6924,0.0000
3.3280,0.6925,0.0000
3.3290,0.6925,0.0000
3.3300,0.6926,0.0000
3.3310,0.6920,0.0000
3.3320,0.6915,0.0000
3.3330,0.6909,0.0000
3.3340,0.6903,0.0000
3.3350,0.6906,0.0000
3.3360,0.6900,0.0000
3.3370,0.6895,0.0000
3.3380,0.6889,0.0000
3.3390,0.6883,0.0000
3.3400,0.6877,0.0000
3.3410,0.6858,0.0000
3.3420,0.6839,0.0000
3.3430,0.6820,0.0000
3.3440,0.6801,0.0000
3.3450,0.6781,0.0000
3.3460,0.6762,0.0000
3.3470,0.6743,0.0000
3.3480,0.6724,0.0000
3.3490,0.6705,0.0000
3.3500,0.6685,0.0000
3.3510,0.6643,0.0000
3.3520,0.6601,0.0000
3.3530,0.6560,0.0000
3.3540,0.6518,0.0000
3.3550,0.6476,0.0000
3.3560,0.6434,0.0000
3.3570,0.6392,0.0000
3.3580,0.6350,0.0000
3.3590,0.6308,0.0000
3.3600,0.6266,0.0000
3.3610,0.6269,0.0000
3.3620,0.6271,0.0000
3.3630,0.6274,0.0000
3.3640,0.6277,0.0000
3.3650,0.6280,0.0000
3.3660,0.6283,0.0000
3.3670,0.6286,0.0000
3.3680,0.6289,0.0000
3.3690,0.6291,0.0000
3.3700,0.6294,0.0000
3.3710,0.6336,0.0000
3.3720,0.6378,0.0000
3.3730,0.6427,0.0000
3.3740,0.6477,0.0000
3.3750,0.6519,0.0000
3.3760,0.6561,0.0000
3.3770,0.6603,0.0000
3.3780,0.6645,0.0000
3.3790,0.6687,0.0000
3.3800,0.6729,0.0000
3.3810,0.6741,0.0000
3.3820,0.6752,0.0000
3.3830,0.6764,0.0000
3.3840,0.6775,0.0000
3.3850,0.6786,0.0000
3.3860,0.6798,0.0000
3.3870,0.6809,0.0000
3.3880,0.6821,0.0000
3.3890,0.6832,0.0000
3.3900,0.6843,0.0000
3.3910,0.6838,0.0000
3.3920,0.6833,0.0000
3.3930,0.6828,0.0000
3.3940,0.6823,0.0000
3.3950,0.6818,0.0000
3.3960,0.6813,0.0000
3.3970,0.6808,0.0000
3.3980,0.6803,0.0000
3.3990,0.6798,0.0000
3.4000,0.6793,0.0000
3.4010,0.6788,0.0000
3.4020,0.6782,0.0000
3.4030,0.6776,0.0000
3.4040,0.6771,0.0000
3.4050,0.6765,0.0000
3.4060,0.6759,0.0000
3.4070,0.6754,0.0000
3.4080,0.6748,0.0000
3.4090,0.6742,0.0000
3.4100,0.6744,0.0000
3.4110,0.6741,0.0000
3.4120,0.6737,0.0000
3.4130,0.6734,0.0000
3.4140,0.6730,0.0000
3.4150,0.6726,0.0000
3.4160,0.6730,0.0000
3.4170,0.6727,0.0000
3.4180,0.6723,0.0000
3.4190,0.6720,0.0000
3.4200,0.6716,0.0000
3.4210,0.6717,0.0000
3.4220,0.6718,0.0000
3.4230,0.6718,0.0000
3.4240,0.6719,0.0000
3.4250,0.6720,0.0000
3.4260,0.6720,0.0000
3.4270,0.6721,0.0000
3.4280,0.6722,0.0000
3.4290,0.6723,0.0000
3.4300,0.6723,0.0000
3.4310,0.6722,0.0000
3.4320,0.6720,0.0000
3.4330,0.6719,0.0000
3.4340,0.6718,0.0000
3.4350,0.6716,0.0000
3.4360,0.6715,0.0000
3.4370,0.6713,0.0000
3.4380,0.6712,0.0000
3.4390,0.6710,0.0000
3.4400,0.6709,0.0000
3.4410,0.6705,0.0000
3.4420,0.6702,0.0000
3.4430,0.6698,0.0000
3.4440,0.6703,0.0000
3.4450,0.6699,0.0000
3.4460,0.6695,0.0000
3.4470,0.6692,0.0000
3.4480,0.6688,0.0000
3.4490,0.6692,0.0000
3.4500,0.6689,0.0000
3.4510,0.6688,0.0000
3.4520,0.6687,0.0000
3.4530,0.6686,0.0000
3.4540,0.6686,0.0000
3.4550,0.6685,0.0000
3.4560,0.6684,0.0000
3.4570,0.6684,0.0000
3.4580,0.6683,0.0000
3.4590,0.6682,0.0000
3.4600,0.6681,0.0000
3.4610,0.6685,0.0000
3.4620,0.6689,0.0000
3.4630,0.6692,0.0000
3.4640,0.6696,0.0000
3.4650,0.6699,0.0000
3.4660,0.6703,0.0000
3.4670,0.6707,0.0000
3.4680,0.6710,0.0000
3.4690,0.6714,0.0000
3.4700,0.6717,0.0000
3.4710,0.6717,0.0000
3.4720,0.6717,0.0000
3.4730,0.6717,0.0000
3.4740,0.6717,0.0000
3.4750,0.6717,0.0000
3.4760,0.6717,0.0000
3.4770,0.6725,0.0000
3.4780,0.6725,0.0000
3.4790,0.6725,0.0000
3.4800,0.6733,0.0000
3.4810,0.6736,0.0000
3.4820,0.6740,0.0000
3.4830,0.6743,0.0000
3.4840,0.6747,0.0000
3.4850,0.6751,0.0000
3.4860,0.6754,0.0000
3.4870,0.6758,0.0000
3.4880,0.6761,0.0000
3.4890,0.6765,0.0000
3.4900,0.6769,0.0000
3.4910,0.6774,0.0000
3.4920,0.6779,0.0000
3.4930,0.6784,0.0000
3.4940,0.6789,0.0000
3.4950,0.6794,0.0000
3.4960,0.6799,0.0000
3.4970,0.6804,0.0000
3.4980,0.6809,0.0000
3.4990,0.6814,0.0000
3.5000,0.6819,0.0000
3.5010,0.6823,0.0000
3.5020,0.6827,0.0000
3.5030,0.6832,0.0000
3.5040,0.6836,0.0000
3.5050,0.6840,0.0000
3.5060,0.6845,0.0000
3.5070,0.6849,0.0000
3.5080,0.6861,0.0000
3.5090,0.6866,0.0000
3.5100,0.6870,0.0000
3.5110,0.6883,0.0000
3.5120,0.6888,0.0000
3.5130,0.6893,0.0000
3.5140,0.6898,0.0000
3.5150,0.6903,0.0000
3.5160,0.6908,0.0000
3.5170,0.6913,0.0000
3.5180,0.6918,0.0000
3.5190,0.6923,0.0000
3.5200,0.6928,0.0000
3.5210,0.6932,0.0000
3.5220,0.6937,0.0000
3.5230,0.6941,0.0000
3.5240,0.6945,0.0000
3.5250,0.6950,0.0000
3.5260,0.6954,0.0000
3.5270,0.6958,0.0000
3.5280,0.6963,0.0000
3.5290,0.6967,0.0000
3.5300,0.6971,0.0000
3.5310,0.6975,0.0000
3.5320,0.6978,0.0000
3.5330,0.6982,0.0000
3.5340,0.6986,0.0000
3.5350,0.6997,0.0000
3.5360,0.7001,0.0000
3.5370,0.7004,0.0000
3.5380,0.7008,0.0000
3.5390,0.7012,0.0000
3.5400,0.7015,0.0000
3.5410,0.7017,0.0000
3.5420,0.7020,0.0000
3.5430,0.7030,0.0000
3.5440,0.7032,0.0000
3.5450,0.7034,0.0000
3.5460,0.7036,0.0000
3.5470,0.7038,0.0000
3.5480,0.7040,0.0000
3.5490,0.7043,0.0000
3.5500,0.7045,0.0000
3.5510,0.7046,0.0000
3.5520,0.7056,0.0000
3.5530,0.7057,0.0000
3.5540,0.7059,0.0000
3.5550,0.7060,0.0000
3.5560,0.7062,0.0000
3.5570,0.7063,0.0000
3.5580,0.7065,0.0000
3.5590,0.7066,0.0000
3.5600,0.7067,0.0000
3.5610,0.7070,0.0000
3.5620,0.7072,0.0000
3.5630,0.7074,0.0000
3.5640,0.7076,0.0000
3.5650,0.7078,0.0000
3.5660,0.7080,0.0000
3.5670,0.7083,0.0000
3.5680,0.7085,0.0000
3.5690,0.7095,0.0000
3.5700,0.7097,0.0000
3.5710,0.7099,0.0000
3.5720,0.7100,0.0000
3.5730,0.7102,0.0000
3.5740,0.7103,0.0000
3.5750,0.7105,0.0000
3.5760,0.7106,0.0000
3.5770,0.7107,0.0000
3.5780,0.7117,0.0000
3.5790,0.7118,0.0000
3.5800,0.7120,0.0000
3.5810,0.7120,0.0000
3.5820,0.7121,0.0000
3.5830,0.7122,0.0000
3.5840,0.7123,0.0000
3.5850,0.7132,0.0000
3.5860,0.7132,0.0000
3.5870,0.7133,0.0000
3.5880,0.7134,0.0000
3.5890,0.7135,0.0000
3.5900,0.7135,0.0000
3.5910,0.7135,0.0000
3.5920,0.7135,0.0000
3.5930,0.7135,0.0000
3.5940,0.7135,0.0000
3.5950,0.7135,0.0000
3.5960,0.7135,0.0000
3.5970,0.7135,0.0000
3.5980,0.7135,0.0000
3.5990,0.7135,0.0000
3.6000,0.7135,0.0000
3.6010,0.7135,0.0000
3.6020,0.7135,0.0000
3.6030,0.7135,0.0000
3.6040,0.7144,0.0000
3.6050,0.7144,0.0000
3.6060,0.7144,0.0000
3.6070,0.7144,0.0000
3.6080,0.7144,0.0000
3.6090,0.7144,0.0000
3.6100,0.7144,0.0000
3.6110,0.7143,0.0000
3.6120,0.7142,0.0000
3.6130,0.7141,0.0000
3.6140,0.7141,0.0000
3.6150,0.7140,0.0000
3.6160,0.7139,0.0000
3.6170,0.7139,0.0000
3.6180,0.7138,0.0000
3.6190,0.7137,0.0000
3.6200,0.7144,0.0000
3.6210,0.7144,0.0000
3.6220,0.7143,0.0000
3.6230,0.7142,0.0000
3.6240,0.7141,0.0000
3.6250,0.7141,0.0000
3.6260,0.7140,0.0000
3.6270,0.7139,0.0000
3.6280,0.7138,0.0000
3.6290,0.7138,0.0000
3.6300,0.7137,0.0000
3.6310,0.7137,0.0000
3.6320,0.7137,0.0000
3.6330,0.7137,0.0000
3.6340,0.7137,0.0000
3.6350,0.7137,0.0000
3.6360,0.7137,0.0000
3.6370,0.7137,0.0000
3.6380,0.7137,0.0000
3.6390,0.7137,0.0000
3.6400,0.7137,0.0000
3.6410,0.7138,0.0000
3.6420,0.7138,0.0000
3.6430,0.7139,0.0000
3.6440,0.7140,0.0000
3.6450,0.7141,0.0000
3.6460,0.7141,0.0000
3.6470,0.7142,0.0000
3.6480,0.7143,0.0000
3.6490,0.7144,0.0000
3.6500,0.7153,0.0000
3.6510,0.7154,0.0000
3.6520,0.7155,0.0000
3.6530,0.7157,0.0000
3.6540,0.7158,0.0000
3.6550,0.7160,0.0000
3.6560,0.7161,0.0000
3.6570,0.7163,0.0000
3.6580,0.7164,0.0000
3.6590,0.7166,0.0000
3.6600,0.7167,0.0000
3.6610,0.7168,0.0000
3.6620,0.7169,0.0000
3.6630,0.7169,0.0000
3.6640,0.7170,0.0000
3.6650,0.7171,0.0000
3.6660,0.7171,0.0000
3.6670,0.7172,0.0000
3.6680,0.7173,0.0000
3.6690,0.7174,0.0000
3.6700,0.7182,0.0000
3.6710,0.7184,0.0000
3.6720,0.7185,0.0000
3.6730,0.7187,0.0000
3.6740,0.7188,0.0000
3.6750,0.7190,0.0000
3.6760,0.7191,0.0000
3.6770,0.7193,0.0000
3.6780,0.7194,0.0000
3.6790,0.7195,0.0000
3.6800,0.7197,0.0000
3.6810,0.7198,0.0000
3.6820,0.7200,0.0000
3.6830,0.7201,0.0000
3.6840,0.7203,0.0000
3.6850,0.7204,0.0000
3.6860,0.7206,0.0000
3.6870,0.7207,0.0000
3.6880,0.7209,0.0000
3.6890,0.7210,0.0000
3.6900,0.7212,0.0000
3.6910,0.7212,0.0000
3.6920,0.7212,0.0000
3.6930,0.7212,0.0000
3.6940,0.7220,0.0000
3.6950,0.7220,0.0000
3.6960,0.7220,0.0000
3.6970,0.7220,0.0000
3.6980,0.7220,0.0000
3.6990,0.7220,0.0000
3.7000,0.7220,0.0000
3.7010,0.7220,0.0000
3.7020,0.7220,0.0000
3.7030,0.7220,0.0000
3.7040,0.7220,0.0000
3.7050,0.7220,0.0000
3.7060,0.7220,0.0000
3.7070,0.7220,0.0000
3.7080,0.7220,0.0000
3.7090,0.7220,0.0000
3.7100,0.7220,0.0000
3.7110,0.7221,0.0000
3.7120,0.7221,0.0000
3.7130,0.7222,0.0000
3.7140,0.7223,0.0000
3.7150,0.7224,0.0000
3.7160,0.7224,0.0000
3.7170,0.7225,0.0000
3.7180,0.7226,0.0000
3.7190,0.7226,0.0000
3.7200,0.7227,0.0000
3.7210,0.7228,0.0000
3.7220,0.7229,0.0000
3.7230,0.7229,0.0000
3.7240,0.7230,0.0000
3.7250,0.7231,0.0000
3.7260,0.7232,0.0000
3.7270,0.7232,0.0000
3.7280,0.7233,0.0000
3.7290,0.7234,0.0000
3.7300,0.7234,0.0000
3.7310,0.7235,0.0000
3.7320,0.7236,0.0000
3.7330,0.7237,0.0000
3.7340,0.7237,0.0000
3.7350,0.7238,0.0000
3.7360,0.7247,0.0000
3.7370,0.7248,0.0000
3.7380,0.7249,0.0000
3.7390,0.7249,0.0000
3.7400,0.7250,0.0000
3.7410,0.7258,0.0000
3.7420,0.7258,0.0000
3.7430,0.7258,0.0000
3.7440,0.7258,0.0000
3.7450,0.7258,0.0000
3.7460,0.7258,0.0000
3.7470,0.7258,0.0000
3.7480,0.7258,0.0000
3.7490,0.7258,0.0000
3.7500,0.7258,0.0000
3.7510,0.7258,0.0000
3.7520,0.7258,0.0000
3.7530,0.7258,0.0000
3.7540,0.7258,0.0000
3.7550,0.7258,0.0000
3.7560,0.7258,0.0000
3.7570,0.7258,0.0000
3.7580,0.7258,0.0000
3.7590,0.7258,0.0000
3.7600,0.7258,0.0000
3.7610,0.7258,0.0000
3.7620,0.7258,0.0000
3.7630,0.7258,0.0000
3.7640,0.7258,0.0000
3.7650,0.7258,0.0000
3.7660,0.7258,0.0000
3.7670,0.7258,0.0000
3.7680,0.7258,0.0000
3.7690,0.7258,0.0000
3.7700,0.7258,0.0000
3.7710,0.7258,0.0000
3.7720,0.7258,0.0000
3.7730,0.7258,0.0000
3.7740,0.7258,0.0000
3.7750,0.7258,0.0000
3.7760,0.7258,0.0000
3.7770,0.7267,0.0000
3.7780,0.7267,0.0000
3.7790,0.7267,0.0000
3.7800,0.7267,0.0000
3.7810,0.7267,0.0000
3.7820,0.7268,0.0000
3.7830,0.7269,0.0000
3.7840,0.7270,0.0000
3.7850,0.7270,0.0000
3.7860,0.7271,0.0000
3.7870,0.7272,0.0000
3.7880,0.7272,0.0000
3.7890,0.7273,0.0000
3.7900,0.7274,0.0000
3.7910,0.7273,0.0000
3.7920,0.7272,0.0000
3.7930,0.7272,0.0000
3.7940,0.7271,0.0000
3.7950,0.7270,0.0000
3.7960,0.7270,0.0000
3.7970,0.7269,0.0000
3.7980,0.7268,0.0000
3.7990,0.7267,0.0000
3.8000,0.7267,0.0000
3.8010,0.7267,0.0000
3.8020,0.7268,0.0000
3.8030,0.7269,0.0000
3.8040,0.7270,0.0000
3.8050,0.7270,0.0000
3.8060,0.7271,0.0000
3.8070,0.7272,0.0000
3.8080,0.7272,0.0000
3.8090,0.7273,0.0000
3.8100,0.7274,0.0000
3.8110,0.7274,0.0000
3.8120,0.7274,0.0000
3.8130,0.7274,0.0000
3.8140,0.7274,0.0000
3.8150,0.7274,0.0000
3.8160,0.7274,0.0000
3.8170,0.7274,0.0000
3.8180,0.7282,0.0000
3.8190,0.7282,0.0000
3.8200,0.7282,0.0000
3.8210,0.7282,0.0000
3.8220,0.7282,0.0000
3.8230,0.7282,0.0000
3.8240,0.7282,0.0000
3.8250,0.7282,0.0000
3.8260,0.7282,0.0000
3.8270,0.7282,0.0000
3.8280,0.7282,0.0000
3.8290,0.7282,0.0000
3.8300,0.7282,0.0000
3.8310,0.7282,0.0000
3.8320,0.7282,0.0000
3.8330,0.7282,0.0000
3.8340,0.7282,0.0000
3.8350,0.7282,0.0000
3.8360,0.7282,0.0000
3.8370,0.7282,0.0000
3.8380,0.7282,0.0000
3.8390,0.7290,0.0000
3.8400,0.7290,0.0000
3.8410,0.7290,0.0000
3.8420,0.7290,0.0000
3.8430,0.7290,0.0000
3.8440,0.7290,0.0000
3.8450,0.7290,0.0000
3.8460,0.7290,0.0000
3.8470,0.7290,0.0000
3.8480,0.7290,0.0000
3.8490,0.7290,0.0000
3.8500,0.7290,0.0000
3.8510,0.7290,0.0000
3.8520,0.7290,0.0000
3.8530,0.7290,0.0000
3.8540,0.7290,0.0000
3.8550,0.7290,0.0000
3.8560,0.7290,0.0000
3.8570,0.7290,0.0000
3.8580,0.7299,0.0000
3.8590,0.7299,0.0000
3.8600,0.7299,0.0000
3.8610,0.7299,0.0000
3.8620,0.7299,0.0000
3.8630,0.7299,0.0000
3.8640,0.7299,0.0000
3.8650,0.7299,0.0000
3.8660,0.7299,0.0000
3.8670,0.7299,0.0000
3.8680,0.7299,0.0000
3.8690,0.7299,0.0000
3.8700,0.7299,0.0000
3.8710,0.7299,0.0000
3.8720,0.7299,0.0000
3.8730,0.7299,0.0000
3.8740,0.7299,0.0000
3.8750,0.7299,0.0000
3.8760,0.7299,0.0000
3.8770,0.7299,0.0000
3.8780,0.7299,0.0000
3.8790,0.7299,0.0000
3.8800,0.7299,0.0000
3.8810,0.7299,0.0000
3.8820,0.7299,0.0000
3.8830,0.7299,0.0000
3.8840,0.7299,0.0000
3.8850,0.7299,0.0000
3.8860,0.7299,0.0000
3.8870,0.7299,0.0000
3.8880,0.7299,0.0000
3.8890,0.7299,0.0000
3.8900,0.7299,0.0000
3.8910,0.7299,0.0000
3.8920,0.7299,0.0000
3.8930,0.7299,0.0000
3.8940,0.7299,0.0000
3.8950,0.7299,0.0000
3.8960,0.7299,0.0000
3.8970,0.7299,0.0000
3.8980,0.7307,0.0000
3.8990,0.7307,0.0000
3.9000,0.7307,0.0000
3.9010,0.7307,0.0000
3.9020,0.7307,0.0000
3.9030,0.7307,0.0000
3.9040,0.7307,0.0000
3.9050,0.7307,0.0000
3.9060,0.7307,0.0000
3.9070,0.7307,0.0000
3.9080,0.7307,0.0000
3.9090,0.7307,0.0000
3.9100,0.7307,0.0000
3.9110,0.7307,0.0000
3.9120,0.7307,0.0000
3.9130,0.7307,0.0000
3.9140,0.7307,0.0000
3.9150,0.7315,0.0000
3.9160,0.7315,0.0000
3.9170,0.7315,0.0000
3.9180,0.7315,0.0000
3.9190,0.7315,0.0000
3.9200,0.7315,0.0000
3.9210,0.7315,0.0000
3.9220,0.7315,0.0000
3.9230,0.7315,0.0000
3.9240,0.7315,0.0000
3.9250,0.7315,0.0000
3.9260,0.7315,0.0000
3.9270,0.7315,0.0000
3.9280,0.7315,0.0000
3.9290,0.7315,0.0000
3.9300,0.7315,0.0000
3.9310,0.7315,0.0000
3.9320,0.7315,0.0000
3.9330,0.7315,0.0000
3.9340,0.7315,0.0000
3.9350,0.7315,0.0000
3.9360,0.7315,0.0000
3.9370,0.7315,0.0000
3.9380,0.7324,0.0000
3.9390,0.7324,0.0000
3.9400,0.7324,0.0000
3.9410,0.7325,0.0000
3.9420,0.7325,0.0000
3.9430,0.7326,0.0000
3.9440,0.7327,0.0000
3.9450,0.7327,0.0000
3.9460,0.7328,0.0000
3.9470,0.7329,0.0000
3.9480,0.7330,0.0000
3.9490,0.7330,0.0000
3.9500,0.7331,0.0000
3.9510,0.7331,0.0000
3.9520,0.7331,0.0000
3.9530,0.7331,0.0000
3.9540,0.7331,0.0000
3.9550,0.7331,0.0000
3.9560,0.7331,0.0000
3.9570,0.7331,0.0000
3.9580,0.7331,0.0000
3.9590,0.7331,0.0000
3.9600,0.7331,0.0000
3.9610,0.7331,0.0000
3.9620,0.7331,0.0000
3.9630,0.7331,0.0000
3.9640,0.7331,0.0000
3.9650,0.7331,0.0000
3.9660,0.7331,0.0000
3.9670,0.7331,0.0000
3.9680,0.7331,0.0000
3.9690,0.7331,0.0000
3.9700,0.7339,0.0000
3.9710,0.7339,0.0000
3.9720,0.7339,0.0000
3.9730,0.7339,0.0000
3.9740,0.7339,0.0000
3.9750,0.7339,0.0000
3.9760,0.7339,0.0000
3.9770,0.7339,0.0000
3.9780,0.7348,0.0000
3.9790,0.7348,0.0000
3.9800,0.7348,0.0000
3.9810,0.7348,0.0000
3.9820,0.7348,0.0000
3.9830,0.7348,0.0000
3.9840,0.7348,0.0000
3.9850,0.7348,0.0000
3.9860,0.7348,0.0000
3.9870,0.7348,0.0000
3.9880,0.7348,0.0000
3.9890,0.7348,0.0000
3.9900,0.7348,0.0000
3.9910,0.7348,0.0000
3.9920,0.7348,0.0000
3.9930,0.7348,0.0000
3.9940,0.7348,0.0000
3.9950,0.7348,0.0000
3.9960,0.7348,0.0000
3.9970,0.7348,0.0000
3.9980,0.7348,0.0000
3.9990,0.7348,0.0000
4.0000,0.7348,0.0000
4.0010,0.7348,0.0000
4.0020,0.7348,0.0000
4.0030,0.7348,0.0000
4.0040,0.7348,0.0000
4.0050,0.7348,0.0000
4.0060,0.7348,0.0000
4.0070,0.7348,0.0000
4.0080,0.7348,0.0000
4.0090,0.7348,0.0000
4.0100,0.7348,0.0000
4.0110,0.7348,0.0000
4.0120,0.7349,0.0000
4.0130,0.7350,0.0000
4.0140,0.7351,0.0000
4.0150,0.7351,0.0000
4.0160,0.7352,0.0000
4.0170,0.7353,0.0000
4.0180,0.7354,0.0000
4.0190,0.7363,0.0000
4.0200,0.7364,0.0000
4.0210,0.7372,0.0000
4.0220,0.7372,0.0000
4.0230,0.7372,0.0000
4.0240,0.7372,0.0000
4.0250,0.7372,0.0000
4.0260,0.7372,0.0000
4.0270,0.7372,0.0000
4.0280,0.7372,0.0000
4.0290,0.7372,0.0000
4.0300,0.7372,0.0000
4.0310,0.7372,0.0000
4.0320,0.7372,0.0000
4.0330,0.7372,0.0000
4.0340,0.7372,0.0000
4.0350,0.7372,0.0000
4.0360,0.7372,0.0000
4.0370,0.7372,0.0000
4.0380,0.7372,0.0000
4.0390,0.7372,0.0000
4.0400,0.7372,0.0000
4.0410,0.7372,0.0000
4.0420,0.7373,0.0000
4.0430,0.7374,0.0000
4.0440,0.7375,0.0000
4.0450,0.7375,0.0000
4.0460,0.7376,0.0000
4.0470,0.7377,0.0000
4.0480,0.7378,0.0000
4.0490,0.7378,0.0000
4.0500,0.7379,0.0000
4.0510,0.7379,0.0000
4.0520,0.7379,0.0000
4.0530,0.7379,0.0000
4.0540,0.7379,0.0000
4.0550,0.7379,0.0000
4.0560,0.7379,0.0000
4.0570,0.7379,0.0000
4.0580,0.7379,0.0000
4.0590,0.7379,0.0000
4.0600,0.7379,0.0000
4.0610,0.7388,0.0000
4.0620,0.7388,0.0000
4.0630,0.7388,0.0000
4.0640,0.7388,0.0000
4.0650,0.7388,0.0000
4.0660,0.7388,0.0000
4.0670,0.7388,0.0000
4.0680,0.7388,0.0000
4.0690,0.7388,0.0000
4.0700,0.7388,0.0000
4.0710,0.7388,0.0000
4.0720,0.7389,0.0000
4.0730,0.7398,0.0000
4.0740,0.7399,0.0000
4.0750,0.7399,0.0000
4.0760,0.7400,0.0000
4.0770,0.7401,0.0000
4.0780,0.7402,0.0000
4.0790,0.7402,0.0000
4.0800,0.7403,0.0000
4.0810,0.7403,0.0000
4.0820,0.7403,0.0000
4.0830,0.7403,0.0000
4.0840,0.7403,0.0000
4.0850,0.7403,0.0000
4.0860,0.7403,0.0000
4.0870,0.7403,0.0000
4.0880,0.7403,0.0000
4.0890,0.7403,0.0000
4.0900,0.7403,0.0000
4.0910,0.7403,0.0000
4.0920,0.7403,0.0000
4.0930,0.7403,0.0000
4.0940,0.7403,0.0000
4.0950,0.7403,0.0000
4.0960,0.7403,0.0000
4.0970,0.7403,0.0000
4.0980,0.7403,0.0000
4.0990,0.7403,0.0000
4.1000,0.7403,0.0000
4.1010,0.7402,0.0000
4.1020,0.7402,0.0000
4.1030,0.7401,0.0000
4.1040,0.7409,0.0000
4.1050,0.7408,0.0000
4.1060,0.7407,0.0000
4.1070,0.7406,0.0000
4.1080,0.7406,0.0000
4.1090,0.7405,0.0000
4.1100,0.7404,0.0000
4.1110,0.7404,0.0000
4.1120,0.7404,0.0000
4.1130,0.7404,0.0000
4.1140,0.7404,0.0000
4.1150,0.7404,0.0000
4.1160,0.7404,0.0000
4.1170,0.7404,0.0000
4.1180,0.7404,0.0000
4.1190,0.7412,0.0000
4.1200,0.7412,0.0000
4.1210,0.7412,0.0000
4.1220,0.7412,0.0000
4.1230,0.7412,0.0000
4.1240,0.7412,0.0000
4.1250,0.7412,0.0000
4.1260,0.7412,0.0000
4.1270,0.7412,0.0000
4.1280,0.7412,0.0000
4.1290,0.7412,0.0000
4.1300,0.7412,0.0000
4.1310,0.7412,0.0000
4.1320,0.7411,0.0000
4.1330,0.7410,0.0000
4.1340,0.7409,0.0000
4.1350,0.7409,0.0000
4.1360,0.7408,0.0000
4.1370,0.7407,0.0000
4.1380,0.7407,0.0000
4.1390,0.7406,0.0000
4.1400,0.7405,0.0000
4.1410,0.7406,0.0000
4.1420,0.7407,0.0000
4.1430,0.7407,0.0000
4.1440,0.7408,0.0000
4.1450,0.7409,0.0000
4.1460,0.7409,0.0000
4.1470,0.7410,0.0000
4.1480,0.7419,0.0000
4.1490,0.7420,0.0000
4.1500,0.7421,0.0000
4.1510,0.7421,0.0000
4.1520,0.7421,0.0000
4.1530,0.7421,0.0000
4.1540,0.7421,0.0000
4.1550,0.7421,0.0000
4.1560,0.7421,0.0000
4.1570,0.7421,0.0000
4.1580,0.7421,0.0000
4.1590,0.7421,0.0000
4.1600,0.7421,0.0000
4.1610,0.7429,0.0000
4.1620,0.7429,0.0000
4.1630,0.7429,0.0000
4.1640,0.7429,0.0000
4.1650,0.7429,0.0000
4.1660,0.7429,0.0000
4.1670,0.7429,0.0000
4.1680,0.7429,0.0000
4.1690,0.7429,0.0000
4.1700,0.7429,0.0000
4.1710,0.7429,0.0000
4.1720,0.7429,0.0000
4.1730,0.7429,0.0000
4.1740,0.7429,0.0000
4.1750,0.7429,0.0000
4.1760,0.7429,0.0000
4.1770,0.7429,0.0000
4.1780,0.7429,0.0000
4.1790,0.7429,0.0000
4.1800,0.7429,0.0000
4.1810,0.7429,0.0000
4.1820,0.7429,0.0000
4.1830,0.7429,0.0000
4.1840,0.7429,0.0000
4.1850,0.7429,0.0000
4.1860,0.7429,0.0000
4.1870,0.7429,0.0000
4.1880,0.7429,0.0000
4.1890,0.7429,0.0000
4.1900,0.7429,0.0000
4.1910,0.7429,0.0000
4.1920,0.7429,0.0000
4.1930,0.7429,0.0000
4.1940,0.7438,0.0000
4.1950,0.7438,0.0000
4.1960,0.7438,0.0000
4.1970,0.7438,0.0000
4.1980,0.7438,0.0000
4.1990,0.7438,0.0000
4.2000,0.7438,0.0000
4.2010,0.7438,0.0000
4.2020,0.7438,0.0000
4.2030,0.7438,0.0000
4.2040,0.7446,0.0000
4.2050,0.7446,0.0000
4.2060,0.7446,0.0000
4.2070,0.7446,0.0000
4.2080,0.7446,0.0000
4.2090,0.7446,0.0000
4.2100,0.7446,0.0000
4.2110,0.7446,0.0000
4.2120,0.7446,0.0000
4.2130,0.7446,0.0000
4.2140,0.7446,0.0000
4.2150,0.7446,0.0000
4.2160,0.7446,0.0000
4.2170,0.7446,0.0000
4.2180,0.7446,0.0000
4.2190,0.7446,0.0000
4.2200,0.7446,0.0000
4.2210,0.7446,0.0000
4.2220,0.7446,0.0000
4.2230,0.7446,0.0000
4.2240,0.7446,0.0000
4.2250,0.7446,0.0000
4.2260,0.7446,0.0000
4.2270,0.7446,0.0000
4.2280,0.7446,0.0000
4.2290,0.7446,0.0000
4.2300,0.7446,0.0000
4.2310,0.7446,0.0000
4.2320,0.7446,0.0000
4.2330,0.7446,0.0000
4.2340,0.7446,0.0000
4.2350,0.7446,0.0000
4.2360,0.7446,0.0000
4.2370,0.7446,0.0000
4.2380,0.7446,0.0000
4.2390,0.7446,0.0000
4.2400,0.7446,0.0000
4.2410,0.7446,0.0000
4.2420,0.7446,0.0000
4.2430,0.7454,0.0000
4.2440,0.7454,0.0000
4.2450,0.7454,0.0000
4.2460,0.7454,0.0000
4.2470,0.7454,0.0000
4.2480,0.7463,0.0000
4.2490,0.7463,0.0000
4.2500,0.7463,0.0000
4.2510,0.7463,0.0000
4.2520,0.7463,0.0000
4.2530,0.7463,0.0000
4.2540,0.7463,0.0000
4.2550,0.7463,0.0000
4.2560,0.7463,0.0000
4.2570,0.7463,0.0000
4.2580,0.7463,0.0000
4.2590,0.7463,0.0000
4.2600,0.7463,0.0000
4.2610,0.7452,0.0000
4.2620,0.7442,0.0000
4.2630,0.7431,0.0000
4.2640,0.7421,0.0000
4.2650,0.7410,0.0000
4.2660,0.7400,0.0000
4.2670,0.7389,0.0000
4.2680,0.7379,0.0000
4.2690,0.7368,0.0000
4.2700,0.7358,0.0000
4.2710,0.7342,0.0000
4.2720,0.7326,0.0000
4.2730,0.7311,0.0000
4.2740,0.7295,0.0000
4.2750,0.7279,0.0000
4.2760,0.7264,0.0000
4.2770,0.7248,0.0000
4.2780,0.7232,0.0000
4.2790,0.7217,0.0000
4.2800,0.7201,0.0000
4.2810,0.7226,0.0000
4.2820,0.7252,0.0000
4.2830,0.7277,0.0000
4.2840,0.7303,0.0000
4.2850,0.7328,0.0000
4.2860,0.7353,0.0000
4.2870,0.7379,0.0000
4.2880,0.7404,0.0000
4.2890,0.7430,0.0000
4.2900,0.7455,0.0000
4.2910,0.7456,0.0000
4.2920,0.7457,0.0000
4.2930,0.7457,0.0000
4.2940,0.7466,0.0000
4.2950,0.7476,0.0000
4.2960,0.7476,0.0000
4.2970,0.7477,0.0000
4.2980,0.7478,0.0000
4.2990,0.7479,0.0000
4.3000,0.7479,0.0000
4.3010,0.7479,0.0000
4.3020,0.7479,0.0000
4.3030,0.7479,0.0000
4.3040,0.7479,0.0000
4.3050,0.7479,0.0000
4.3060,0.7479,0.0000
4.3070,0.7479,0.0000
4.3080,0.7479,0.0000
4.3090,0.7479,0.0000
4.3100,0.7479,0.0000
4.3110,0.7479,0.0000
4.3120,0.7479,0.0000
4.3130,0.7479,0.0000
4.3140,0.7479,0.0000
4.3150,0.7479,0.0000
4.3160,0.7479,0.0000
4.3170,0.7479,0.0000
4.3180,0.7479,0.0000
4.3190,0.7479,0.0000
4.3200,0.7479,0.0000
4.3210,0.7479,0.0000
4.3220,0.7479,0.0000
4.3230,0.7479,0.0000
4.3240,0.7479,0.0000
4.3250,0.7479,0.0000
4.3260,0.7479,0.0000
4.3270,0.7479,0.0000
4.3280,0.7479,0.0000
4.3290,0.7479,0.0000
4.3300,0.7479,0.0000
4.3310,0.7479,0.0000
4.3320,0.7479,0.0000
4.3330,0.7479,0.0000
4.3340,0.7479,0.0000
4.3350,0.7479,0.0000
4.3360,0.7479,0.0000
4.3370,0.7479,0.0000
4.3380,0.7479,0.0000
4.3390,0.7479,0.0000
4.3400,0.7479,0.0000
4.3410,0.7479,0.0000
4.3420,0.7479,0.0000
4.3430,0.7479,0.0000
4.3440,0.7479,0.0000
4.3450,0.7479,0.0000
4.3460,0.7488,0.0000
4.3470,0.7488,0.0000
4.3480,0.7488,0.0000
4.3490,0.7488,0.0000
4.3500,0.7488,0.0000
4.3510,0.7488,0.0000
4.3520,0.7496,0.0000
4.3530,0.7496,0.0000
4.3540,0.7496,0.0000
4.3550,0.7496,0.0000
4.3560,0.7496,0.0000
4.3570,0.7496,0.0000
4.3580,0.7496,0.0000
4.3590,0.7496,0.0000
4.3600,0.7496,0.0000
4.3610,0.7496,0.0000
4.3620,0.7496,0.0000
4.3630,0.7496,0.0000
4.3640,0.7496,0.0000
4.3650,0.7496,0.0000
4.3660,0.7496,0.0000
4.3670,0.7496,0.0000
4.3680,0.7496,0.0000
4.3690,0.7496,0.0000
4.3700,0.7496,0.0000
4.3710,0.7496,0.0000
4.3720,0.7496,0.0000
4.3730,0.7496,0.0000
4.3740,0.7496,0.0000
4.3750,0.7496,0.0000
4.3760,0.7496,0.0000
4.3770,0.7496,0.0000
4.3780,0.7496,0.0000
4.3790,0.7496,0.0000
4.3800,0.7496,0.0000
4.3810,0.7496,0.0000
4.3820,0.7496,0.0000
4.3830,0.7496,0.0000
4.3840,0.7496,0.0000
4.3850,0.7496,0.0000
4.3860,0.7496,0.0000
4.3870,0.7496,0.0000
4.3880,0.7496,0.0000
4.3890,0.7496,0.0000
4.3900,0.7496,0.0000
4.3910,0.7496,0.0000
4.3920,0.7496,0.0000
4.3930,0.7496,0.0000
4.3940,0.7496,0.0000
4.3950,0.7496,0.0000
4.3960,0.7496,0.0000
4.3970,0.7496,0.0000
4.3980,0.7496,0.0000
4.3990,0.7496,0.0000
4.4000,0.7496,0.0000
4.4010,0.7496,0.0000
4.4020,0.7496,0.0000
4.4030,0.7496,0.0000
4.4040,0.7496,0.0000
4.4050,0.7496,0.0000
4.4060,0.7504,0.0000
4.4070,0.7504,0.0000
4.4080,0.7504,0.0000
4.4090,0.7504,0.0000
4.4100,0.7504,0.0000
4.4110,0.7504,0.0000
4.4120,0.7504,0.0000
4.4130,0.7504,0.0000
4.4140,0.7513,0.0000
4.4150,0.7513,0.0000
4.4160,0.7513,0.0000
4.4170,0.7513,0.0000
4.4180,0.7513,0.0000
4.4190,0.7513,0.0000
4.4200,0.7513,0.0000
4.4210,0.7513,0.0000
4.4220,0.7513,0.0000
4.4230,0.7513,0.0000
4.4240,0.7513,0.0000
4.4250,0.7513,0.0000
4.4260,0.7513,0.0000
4.4270,0.7513,0.0000
4.4280,0.7513,0.0000
4.4290,0.7513,0.0000
4.4300,0.7513,0.0000
4.4310,0.7513,0.0000
4.4320,0.7513,0.0000
4.4330,0.7513,0.0000
4.4340,0.7513,0.0000
4.4350,0.7513,0.0000
4.4360,0.7513,0.0000
4.4370,0.7513,0.0000
4.4380,0.7513,0.0000
4.4390,0.7513,0.0000
4.4400,0.7513,0.0000
4.4410,0.7513,0.0000
4.4420,0.7513,0.0000
4.4430,0.7513,0.0000
4.4440,0.7513,0.0000
4.4450,0.7513,0.0000
4.4460,0.7513,0.0000
4.4470,0.7513,0.0000
4.4480,0.7513,0.0000
4.4490,0.7513,0.0000
4.4500,0.7513,0.0000
4.4510,0.7513,0.0000
4.4520,0.7513,0.0000
4.4530,0.7513,0.0000
4.4540,0.7513,0.0000
4.4550,0.7513,0.0000
4.4560,0.7513,0.0000
4.4570,0.7513,0.0000
4.4580,0.7513,0.0000
4.4590,0.7513,0.0000
4.4600,0.7513,0.0000
4.4610,0.7513,0.0000
4.4620,0.7513,0.0000
4.4630,0.7513,0.0000
4.4640,0.7513,0.0000
4.4650,0.7513,0.0000
4.4660,0.7513,0.0000
4.4670,0.7513,0.0000
4.4680,0.7513,0.0000
4.4690,0.7513,0.0000
4.4700,0.7513,0.0000
4.4710,0.7513,0.0000
4.4720,0.7513,0.0000
4.4730,0.7513,0.0000
4.4740,0.7513,0.0000
4.4750,0.7513,0.0000
4.4760,0.7513,0.0000
4.4770,0.7521,0.0000
4.4780,0.7521,0.0000
4.4790,0.7521,0.0000
4.4800,0.7521,0.0000
4.4810,0.7521,0.0000
4.4820,0.7521,0.0000
4.4830,0.7521,0.0000
4.4840,0.7521,0.0000
4.4850,0.7530,0.0000
4.4860,0.7530,0.0000
4.4870,0.7530,0.0000
4.4880,0.7530,0.0000
4.4890,0.7530,0.0000
4.4900,0.7530,0.0000
4.4910,0.7530,0.0000
4.4920,0.7530,0.0000
4.4930,0.7530,0.0000
4.4940,0.7530,0.0000
4.4950,0.7530,0.0000
4.4960,0.7530,0.0000
4.4970,0.7530,0.0000
4.4980,0.7530,0.0000
4.4990,0.7530,0.0000
4.5000,0.7530,0.0000
4.5010,0.7530,0.0000
4.5020,0.7530,0.0000
4.5030,0.7530,0.0000
4.5040,0.7530,0.0000
4.5050,0.7530,0.0000
4.5060,0.7530,0.0000
4.5070,0.7530,0.0000
4.5080,0.7530,0.0000
4.5090,0.7530,0.0000
4.5100,0.7530,0.0000
4.5110,0.7530,0.0000
4.5120,0.7530,0.0000
4.5130,0.7530,0.0000
4.5140,0.7530,0.0000
4.5150,0.7530,0.0000
4.5160,0.7530,0.0000
4.5170,0.7530,0.0000
4.5180,0.7530,0.0000
4.5190,0.7530,0.0000
4.5200,0.7530,0.0000
4.5210,0.7530,0.0000
4.5220,0.7530,0.0000
4.5230,0.7530,0.0000
4.5240,0.7530,0.0000
4.5250,0.7530,0.0000
4.5260,0.7530,0.0000
4.5270,0.7530,0.0000
4.5280,0.7530,0.0000
4.5290,0.7530,0.0000
4.5300,0.7530,0.0000
4.5310,0.7530,0.0000
4.5320,0.7530,0.0000
4.5330,0.7530,0.0000
4.5340,0.7530,0.0000
4.5350,0.7530,0.0000
4.5360,0.7530,0.0000
4.5370,0.7530,0.0000
4.5380,0.7530,0.0000
4.5390,0.7530,0.0000
4.5400,0.7530,0.0000
4.5410,0.7530,0.0000
4.5420,0.7530,0.0000
4.5430,0.7530,0.0000
4.5440,0.7530,0.0000
4.5450,0.7530,0.0000
4.5460,0.7530,0.0000
4.5470,0.7530,0.0000
4.5480,0.7530,0.0000
4.5490,0.7530,0.0000
4.5500,0.7530,0.0000
4.5510,0.7530,0.0000
4.5520,0.7530,0.0000
4.5530,0.7530,0.0000
4.5540,0.7530,0.0000
4.5550,0.7530,0.0000
4.5560,0.7530,0.0000
4.5570,0.7530,0.0000
4.5580,0.7530,0.0000
4.5590,0.7530,0.0000
4.5600,0.7530,0.0000
4.5610,0.7530,0.0000
4.5620,0.7538,0.0000
4.5630,0.7538,0.0000
4.5640,0.7538,0.0000
4.5650,0.7538,0.0000
4.5660,0.7538,0.0000
4.5670,0.7538,0.0000
4.5680,0.7538,0.0000
4.5690,0.7538,0.0000
4.5700,0.7538,0.0000
4.5710,0.7538,0.0000
4.5720,0.7547,0.0000
4.5730,0.7547,0.0000
4.5740,0.7547,0.0000
4.5750,0.7547,0.0000
4.5760,0.7547,0.0000
4.5770,0.7547,0.0000
4.5780,0.7547,0.0000
4.5790,0.7547,0.0000
4.5800,0.7547,0.0000
4.5810,0.7547,0.0000
4.5820,0.7547,0.0000
4.5830,0.7547,0.0000
4.5840,0.7547,0.0000
4.5850,0.7547,0.0000
4.5860,0.7547,0.0000
4.5870,0.7547,0.0000
4.5880,0.7547,0.0000
4.5890,0.7547,0.0000
4.5900,0.7547,0.0000
4.5910,0.7547,0.0000
4.5920,0.7547,0.0000
4.5930,0.7547,0.0000
4.5940,0.7547,0.0000
4.5950,0.7547,0.0000
4.5960,0.7547,0.0000
4.5970,0.7547,0.0000
4.5980,0.7547,0.0000
4.5990,0.7547,0.0000
4.6000,0.7547,0.0000
4.6010,0.7547,0.0000
4.6020,0.7547,0.0000
4.6030,0.7547,0.0000
4.6040,0.7547,0.0000
4.6050,0.7547,0.0000
4.6060,0.7547,0.0000
4.6070,0.7547,0.0000
4.6080,0.7547,0.0000
4.6090,0.7547,0.0000
4.6100,0.7547,0.0000
4.6110,0.7547,0.0000
4.6120,0.7548,0.0000
4.6130,0.7549,0.0000
4.6140,0.7550,0.0000
4.6150,0.7550,0.0000
4.6160,0.7551,0.0000
4.6170,0.7552,0.0000
4.6180,0.7553,0.0000
4.6190,0.7553,0.0000
4.6200,0.7554,0.0000
4.6210,0.7554,0.0000
4.6220,0.7554,0.0000
4.6230,0.7554,0.0000
4.6240,0.7554,0.0000
4.6250,0.7554,0.0000
4.6260,0.7554,0.0000
4.6270,0.7554,0.0000
4.6280,0.7554,0.0000
4.6290,0.7554,0.0000
4.6300,0.7554,0.0000
4.6310,0.7554,0.0000
4.6320,0.7554,0.0000
4.6330,0.7554,0.0000
4.6340,0.7554,0.0000
4.6350,0.7554,0.0000
4.6360,0.7554,0.0000
4.6370,0.7554,0.0000
4.6380,0.7554,0.0000
4.6390,0.7554,0.0000
4.6400,0.7554,0.0000
4.6410,0.7554,0.0000
4.6420,0.7554,0.0000
4.6430,0.7554,0.0000
4.6440,0.7554,0.0000
4.6450,0.7554,0.0000
4.6460,0.7554,0.0000
4.6470,0.7554,0.0000
4.6480,0.7554,0.0000
4.6490,0.7554,0.0000
4.6500,0.7554,0.0000
4.6510,0.7554,0.0000
4.6520,0.7562,0.0000
4.6530,0.7562,0.0000
4.6540,0.7562,0.0000
4.6550,0.7562,0.0000
4.6560,0.7562,0.0000
4.6570,0.7562,0.0000
4.6580,0.7562,0.0000
4.6590,0.7562,0.0000
4.6600,0.7562,0.0000
4.6610,0.7562,0.0000
4.6620,0.7562,0.0000
4.6630,0.7562,0.0000
4.6640,0.7562,0.0000
4.6650,0.7562,0.0000
4.6660,0.7562,0.0000
4.6670,0.7562,0.0000
4.6680,0.7562,0.0000
4.6690,0.7562,0.0000
4.6700,0.7562,0.0000
4.6710,0.7562,0.0000
4.6720,0.7562,0.0000
4.6730,0.7562,0.0000
4.6740,0.7562,0.0000
4.6750,0.7562,0.0000
4.6760,0.7562,0.0000
4.6770,0.7562,0.0000
4.6780,0.7562,0.0000
4.6790,0.7562,0.0000
4.6800,0.7562,0.0000
4.6810,0.7562,0.0000
4.6820,0.7562,0.0000
4.6830,0.7562,0.0000
4.6840,0.7562,0.0000
4.6850,0.7562,0.0000
4.6860,0.7562,0.0000
4.6870,0.7562,0.0000
4.6880,0.7562,0.0000
4.6890,0.7562,0.0000
4.6900,0.7562,0.0000
4.6910,0.7562,0.0000
4.6920,0.7562,0.0000
4.6930,0.7562,0.0000
4.6940,0.7562,0.0000
4.6950,0.7562,0.0000
4.6960,0.7562,0.0000
4.6970,0.7562,0.0000
4.6980,0.7571,0.0000
4.6990,0.7571,0.0000
4.7000,0.7571,0.0000
4.7010,0.7571,0.0000
4.7020,0.7571,0.0000
4.7030,0.7571,0.0000
4.7040,0.7571,0.0000
4.7050,0.7571,0.0000
4.7060,0.7571,0.0000
4.7070,0.7571,0.0000
4.7080,0.7571,0.0000
4.7090,0.7571,0.0000
4.7100,0.7571,0.0000
4.7110,0.7572,0.0000
4.7120,0.7572,0.0000
4.7130,0.7573,0.0000
4.7140,0.7574,0.0000
4.7150,0.7575,0.0000
4.7160,0.7575,0.0000
4.7170,0.7576,0.0000
4.7180,0.7577,0.0000
4.7190,0.7578,0.0000
4.7200,0.7579,0.0000
4.7210,0.7579,0.0000
4.7220,0.7579,0.0000
4.7230,0.7579,0.0000
4.7240,0.7579,0.0000
4.7250,0.7579,0.0000
4.7260,0.7579,0.0000
4.7270,0.7579,0.0000
4.7280,0.7579,0.0000
4.7290,0.7579,0.0000
4.7300,0.7579,0.0000
4.7310,0.7579,0.0000
4.7320,0.7579,0.0000
4.7330,0.7579,0.0000
4.7340,0.7579,0.0000
4.7350,0.7587,0.0000
4.7360,0.7587,0.0000
4.7370,0.7587,0.0000
4.7380,0.7587,0.0000
4.7390,0.7587,0.0000
4.7400,0.7587,0.0000
4.7410,0.7587,0.0000
4.7420,0.7587,0.0000
4.7430,0.7587,0.0000
4.7440,0.7587,0.0000
4.7450,0.7587,0.0000
4.7460,0.7587,0.0000
4.7470,0.7587,0.0000
4.7480,0.7587,0.0000
4.7490,0.7587,0.0000
4.7500,0.7587,0.0000
4.7510,0.7587,0.0000
4.7520,0.7587,0.0000
4.7530,0.7587,0.0000
4.7540,0.7587,0.0000
4.7550,0.7587,0.0000
4.7560,0.7587,0.0000
4.7570,0.7587,0.0000
4.7580,0.7587,0.0000
4.7590,0.7587,0.0000
4.7600,0.7587,0.0000
4.7610,0.7587,0.0000
4.7620,0.7587,0.0000
4.7630,0.7587,0.0000
4.7640,0.7587,0.0000
4.7650,0.7587,0.0000
4.7660,0.7587,0.0000
4.7670,0.7587,0.0000
4.7680,0.7587,0.0000
4.7690,0.7587,0.0000
4.7700,0.7587,0.0000
4.7710,0.7587,0.0000
4.7720,0.7587,0.0000
4.7730,0.7587,0.0000
4.7740,0.7587,0.0000
4.7750,0.7587,0.0000
4.7760,0.7587,0.0000
4.7770,0.7587,0.0000
4.7780,0.7587,0.0000
4.7790,0.7587,0.0000
4.7800,0.7587,0.0000
4.7810,0.7587,0.0000
4.7820,0.7587,0.0000
4.7830,0.7587,0.0000
4.7840,0.7587,0.0000
4.7850,0.7587,0.0000
4.7860,0.7587,0.0000
4.7870,0.7587,0.0000
4.7880,0.7587,0.0000
4.7890,0.7587,0.0000
4.7900,0.7587,0.0000
4.7910,0.7587,0.0000
4.7920,0.7587,0.0000
4.7930,0.7587,0.0000
4.7940,0.7587,0.0000
4.7950,0.7587,0.0000
4.7960,0.7587,0.0000
4.7970,0.7587,0.0000
4.7980,0.7587,0.0000
4.7990,0.7587,0.0000
4.8000,0.7587,0.0000
4.8010,0.7587,0.0000
4.8020,0.7587,0.0000
4.8030,0.7587,0.0000
4.8040,0.7587,0.0000
4.8050,0.7587,0.0000
4.8060,0.7587,0.0000
4.8070,0.7587,0.0000
4.8080,0.7587,0.0000
4.8090,0.7595,0.0000
4.8100,0.7595,0.0000
4.8110,0.7595,0.0000
4.8120,0.7595,0.0000
4.8130,0.7595,0.0000
4.8140,0.7595,0.0000
4.8150,0.7595,0.0000
4.8160,0.7595,0.0000
4.8170,0.7595,0.0000
4.8180,0.7595,0.0000
4.8190,0.7595,0.0000
4.8200,0.7595,0.0000
4.8210,0.7595,0.0000
4.8220,0.7595,0.0000
4.8230,0.7595,0.0000
4.8240,0.7595,0.0000
4.8250,0.7595,0.0000
4.8260,0.7595,0.0000
4.8270,0.7595,0.0000
4.8280,0.7595,0.0000
4.8290,0.7595,0.0000
4.8300,0.7595,0.0000
4.8310,0.7595,0.0000
4.8320,0.7595,0.0000
4.8330,0.7595,0.0000
4.8340,0.7595,0.0000
4.8350,0.7595,0.0000
4.8360,0.7595,0.0000
4.8370,0.7595,0.0000
4.8380,0.7595,0.0000
4.8390,0.7595,0.0000
4.8400,0.7595,0.0000
4.8410,0.7595,0.0000
4.8420,0.7595,0.0000
4.8430,0.7595,0.0000
4.8440,0.7595,0.0000
4.8450,0.7595,0.0000
4.8460,0.7595,0.0000
4.8470,0.7595,0.0000
4.8480,0.7595,0.0000
4.8490,0.7595,0.0000
4.8500,0.7595,0.0000
4.8510,0.7595,0.0000
4.8520,0.7595,0.0000
4.8530,0.7595,0.0000
4.8540,0.7595,0.0000
4.8550,0.7595,0.0000
4.8560,0.7595,0.0000
4.8570,0.7595,0.0000
4.8580,0.7595,0.0000
4.8590,0.7595,0.0000
4.8600,0.7595,0.0000
4.8610,0.7595,0.0000
4.8620,0.7595,0.0000
4.8630,0.7595,0.0000
4.8640,0.7595,0.0000
4.8650,0.7595,0.0000
4.8660,0.7595,0.0000
4.8670,0.7595,0.0000
4.8680,0.7595,0.0000
4.8690,0.7595,0.0000
4.8700,0.7595,0.0000
4.8710,0.7595,0.0000
4.8720,0.7595,0.0000
4.8730,0.7595,0.0000
4.8740,0.7595,0.0000
4.8750,0.7595,0.0000
4.8760,0.7595,0.0000
4.8770,0.7603,0.0000
4.8780,0.7603,0.0000
4.8790,0.7603,0.0000
4.8800,0.7603,0.0000
4.8810,0.7603,0.0000
4.8820,0.7603,0.0000
4.8830,0.7603,0.0000
4.8840,0.7603,0.0000
4.8850,0.7603,0.0000
4.8860,0.7603,0.0000
4.8870,0.7603,0.0000
4.8880,0.7603,0.0000
4.8890,0.7603,0.0000
4.8900,0.7603,0.0000
4.8910,0.7603,0.0000
4.8920,0.7603,0.0000
4.8930,0.7603,0.0000
4.8940,0.7603,0.0000
4.8950,0.7603,0.0000
4.8960,0.7603,0.0000
4.8970,0.7603,0.0000
4.8980,0.7603,0.0000
4.8990,0.7603,0.0000
4.9000,0.7603,0.0000
4.9010,0.7603,0.0000
4.9020,0.7603,0.0000
4.9030,0.7603,0.0000
4.9040,0.7603,0.0000
4.9050,0.7603,0.0000
4.9060,0.7603,0.0000
4.9070,0.7603,0.0000
4.9080,0.7603,0.0000
4.9090,0.7603,0.0000
4.9100,0.7603,0.0000
4.9110,0.7603,0.0000
4.9120,0.7603,0.0000
4.9130,0.7603,0.0000
4.9140,0.7603,0.0000
4.9150,0.7603,0.0000
4.9160,0.7603,0.0000
4.9170,0.7603,0.0000
4.9180,0.7603,0.0000
4.9190,0.7603,0.0000
4.9200,0.7603,0.0000
4.9210,0.7603,0.0000
4.9220,0.7603,0.0000
4.9230,0.7603,0.0000
4.9240,0.7603,0.0000
4.9250,0.7603,0.0000
4.9260,0.7603,0.0000
4.9270,0.7603,0.0000
4.9280,0.7603,0.0000
4.9290,0.7603,0.0000
4.9300,0.7603,0.0000
4.9310,0.7603,0.0000
4.9320,0.7603,0.0000
4.9330,0.7603,0.0000
4.9340,0.7603,0.0000
4.9350,0.7603,0.0000
4.9360,0.7603,0.0000
4.9370,0.7603,0.0000
4.9380,0.7603,0.0000
4.9390,0.7603,0.0000
4.9400,0.7603,0.0000
4.9410,0.7603,0.0000
4.9420,0.7612,0.0000
4.9430,0.7612,0.0000
4.9440,0.7612,0.0000
4.9450,0.7612,0.0000
4.9460,0.7612,0.0000
4.9470,0.7612,0.0000
4.9480,0.7612,0.0000
4.9490,0.7612,0.0000
4.9500,0.7612,0.0000
4.9510,0.7612,0.0000
4.9520,0.7612,0.0000
4.9530,0.7612,0.0000
4.9540,0.7612,0.0000
4.9550,0.7612,0.0000
4.9560,0.7612,0.0000
4.9570,0.7612,0.0000
4.9580,0.7612,0.0000
4.9590,0.7612,0.0000
4.9600,0.7612,0.0000
4.9610,0.7612,0.0000
4.9620,0.7612,0.0000
4.9630,0.7612,0.0000
4.9640,0.7612,0.0000
4.9650,0.7612,0.0000
4.9660,0.7612,0.0000
4.9670,0.7612,0.0000
4.9680,0.7612,0.0000
4.9690,0.7612,0.0000
4.9700,0.7612,0.0000
4.9710,0.7612,0.0000
4.9720,0.7612,0.0000
4.9730,0.7612,0.0000
4.9740,0.7612,0.0000
4.9750,0.7612,0.0000
4.9760,0.7612,0.0000
4.9770,0.7612,0.0000
4.9780,0.7612,0.0000
4.9790,0.7612,0.0000
4.9800,0.7612,0.0000
4.9810,0.7612,0.0000
4.9820,0.7612,0.0000
4.9830,0.7612,0.0000
4.9840,0.7612,0.0000
4.9850,0.7612,0.0000
4.9860,0.7612,0.0000
4.9870,0.7612,0.0000
4.9880,0.7612,0.0000
4.9890,0.7612,0.0000
4.9900,0.7612,0.0000
4.9910,0.7612,0.0000
4.9920,0.7612,0.0000
4.9930,0.7612,0.0000
4.9940,0.7612,0.0000
4.9950,0.7612,0.0000
4.9960,0.7612,0.0000
4.9970,0.7612,0.0000
4.9980,0.7612,0.0000
4.9990,0.7612,0.0000
5.0000,0.7612,0.0000
5.0010,0.7612,0.0000
5.0020,0.7612,0.0000
5.0030,0.7612,0.0000
5.0040,0.7612,0.0000
5.0050,0.7612,0.0000
5.0060,0.7612,0.0000
5.0070,0.7612,0.0000
5.0080,0.7612,0.0000
5.0090,0.7620,0.0000
5.0100,0.7620,0.0000
5.0110,0.7620,0.0000
5.0120,0.7620,0.0000
5.0130,0.7620,0.0000
5.0140,0.7620,0.0000
5.0150,0.7620,0.0000
5.0160,0.7620,0.0000
5.0170,0.7620,0.0000
5.0180,0.7620,0.0000
5.0190,0.7620,0.0000
5.0200,0.7620,0.0000
5.0210,0.7620,0.0000
5.0220,0.7620,0.0000
5.0230,0.7620,0.0000
5.0240,0.7620,0.0000
5.0250,0.7620,0.0000
5.0260,0.7620,0.0000
5.0270,0.7620,0.0000
5.0280,0.7620,0.0000
5.0290,0.7620,0.0000
5.0300,0.7620,0.0000
5.0310,0.7620,0.0000
5.0320,0.7620,0.0000
5.0330,0.7620,0.0000
5.0340,0.7620,0.0000
5.0350,0.7620,0.0000
5.0360,0.7620,0.0000
5.0370,0.7620,0.0000
5.0380,0.7620,0.0000
5.0390,0.7620,0.0000
5.0400,0.7620,0.0000
5.0410,0.7620,0.0000
5.0420,0.7620,0.0000
5.0430,0.7620,0.0000
5.0440,0.7620,0.0000
5.0450,0.7620,0.0000
5.0460,0.7620,0.0000
5.0470,0.7620,0.0000
5.0480,0.7620,0.0000
5.0490,0.7620,0.0000
5.0500,0.7620,0.0000
5.0510,0.7620,0.0000
5.0520,0.7620,0.0000
5.0530,0.7620,0.0000
5.0540,0.7620,0.0000
5.0550,0.7620,0.0000
5.0560,0.7620,0.0000
5.0570,0.7620,0.0000
5.0580,0.7620,0.0000
5.0590,0.7620,0.0000
5.0600,0.7620,0.0000
5.0610,0.7620,0.0000
5.0620,0.7620,0.0000
5.0630,0.7620,0.0000
5.0640,0.7620,0.0000
5.0650,0.7620,0.0000
5.0660,0.7620,0.0000
5.0670,0.7620,0.0000
5.0680,0.7620,0.0000
5.0690,0.7620,0.0000
5.0700,0.7620,0.0000
5.0710,0.7620,0.0000
5.0720,0.7620,0.0000
5.0730,0.7620,0.0000
5.0740,0.7620,0.0000
5.0750,0.7620,0.0000
5.0760,0.7620,0.0000
5.0770,0.7620,0.0000
5.0780,0.7628,0.0000
5.0790,0.7628,0.0000
5.0800,0.7628,0.0000
5.0810,0.7628,0.0000
5.0820,0.7628,0.0000
5.0830,0.7628,0.0000
5.0840,0.7628,0.0000
5.0850,0.7628,0.0000
5.0860,0.7628,0.0000
5.0870,0.7628,0.0000
5.0880,0.7628,0.0000
5.0890,0.7628,0.0000
5.0900,0.7628,0.0000
5.0910,0.7628,0.0000
5.0920,0.7628,0.0000
5.0930,0.7628,0.0000
5.0940,0.7628,0.0000
5.0950,0.7628,0.0000
5.0960,0.7628,0.0000
5.0970,0.7628,0.0000
5.0980,0.7628,0.0000
5.0990,0.7628,0.0000
5.1000,0.7628,0.0000
